  44.82
 133.00
 587675987
Year	Mnth	Day	Hr	dayl(s)	prcp(mm/day)	srad(W/m2)	swe(mm)	tmax(C)	tmin(C)	vp(Pa)
2000	1	1	12	31185.94	0.0	233.66	0.0	-2.09	-14.99	192.89
2000	1	2	12	31302.07	4.21	198.52	0.0	4.18	-10.29	308.07
2000	1	3	12	31370.89	2.68	181.57	0.0	9.34	-1.32	536.8
2000	1	4	12	31449.6	22.18	192.75	0.0	10.8	-2.84	526.92
2000	1	5	12	31449.6	9.32	205.01	0.0	11.21	-3.63	460.48
2000	1	6	12	31449.6	2.14	202.13	0.0	3.8	-14.73	227.77
2000	1	7	12	31596.25	0.64	201.3	0.0	2.04	-12.34	242.34
2000	1	8	12	31716.49	0.58	178.65	0.0	1.71	-7.32	326.6
2000	1	9	12	31795.2	0.13	226.16	0.0	1.36	-8.3	321.57
2000	1	10	12	31795.2	14.74	204.88	0.0	5.1	-7.78	355.91
2000	1	11	12	31805.08	7.88	203.32	0.0	8.85	-3.96	470.63
2000	1	12	12	32025.19	1.05	238.3	0.0	9.27	-1.55	511.35
2000	1	13	12	32140.8	0.0	246.52	0.0	3.39	-11.29	262.11
2000	1	14	12	32140.8	0.0	262.92	0.0	-5.97	-20.17	121.35
2000	1	15	12	32287.45	6.7	196.11	0.0	-11.65	-22.72	87.75
2000	1	16	12	32464.0	11.31	224.85	0.0	-7.42	-22.64	94.05
2000	1	17	12	32486.4	6.0	229.57	0.0	-2.81	-19.06	124.37
2000	1	18	12	32496.28	0.92	265.88	0.0	-6.59	-17.95	126.72
2000	1	19	12	32809.6	0.0	274.0	0.0	-10.91	-23.39	85.34
2000	1	20	12	32832.0	0.26	235.67	0.0	-10.0	-24.47	79.88
2000	1	21	12	32841.88	6.93	230.21	0.0	-7.76	-20.69	103.2
2000	1	22	12	33155.2	3.63	224.38	0.0	-10.41	-19.78	105.37
2000	1	23	12	33177.6	0.68	229.28	0.0	-11.32	-23.31	86.5
2000	1	24	12	33324.25	0.17	245.16	0.0	-5.51	-21.78	113.8
2000	1	25	12	33523.2	14.59	235.82	0.0	-1.12	-13.31	214.54
2000	1	26	12	33523.2	5.16	243.81	0.0	4.93	-8.86	300.25
2000	1	27	12	33753.19	0.52	243.04	0.0	2.91	-9.38	268.92
2000	1	28	12	33868.8	0.04	304.84	0.0	-4.17	-19.47	134.23
2000	1	29	12	33950.74	0.0	298.35	0.0	-7.39	-18.8	129.21
2000	1	30	12	34214.4	0.0	326.22	0.0	0.38	-16.43	166.16
2000	1	31	12	34214.4	9.31	268.41	0.0	4.18	-13.87	231.93
2000	2	1	12	34481.29	2.45	287.39	0.0	4.05	-5.94	344.9
2000	2	2	12	34560.0	0.0	324.72	0.0	1.64	-12.03	233.47
2000	2	3	12	34758.07	0.0	299.7	0.0	-4.12	-16.56	153.49
2000	2	4	12	34905.6	0.06	270.4	0.0	-5.21	-19.09	122.24
2000	2	5	12	34987.54	0.02	350.17	0.0	-4.5	-21.57	109.34
2000	2	6	12	35251.2	0.0	346.97	0.0	-2.12	-18.02	139.42
2000	2	7	12	35251.2	0.0	346.59	0.0	-1.67	-16.36	151.18
2000	2	8	12	35596.8	0.0	364.06	0.0	1.12	-20.5	125.73
2000	2	9	12	35596.8	0.0	355.12	0.0	-1.33	-16.96	164.45
2000	2	10	12	35942.4	0.92	280.83	0.0	2.39	-11.44	241.35
2000	2	11	12	35942.4	10.13	251.92	0.0	-0.26	-10.1	250.42
2000	2	12	12	36288.0	2.6	376.05	0.0	2.73	-16.46	163.61
2000	2	13	12	36288.0	1.48	303.54	0.0	-3.05	-21.71	117.93
2000	2	14	12	36633.6	31.57	313.87	0.0	2.39	-16.69	187.56
2000	2	15	12	36633.6	14.5	317.02	0.0	5.45	-7.26	317.35
2000	2	16	12	36979.2	6.29	295.52	0.0	1.03	-11.52	244.74
2000	2	17	12	36979.2	1.27	343.52	0.0	1.05	-14.51	179.33
2000	2	18	12	37324.8	5.91	320.86	0.0	-6.73	-23.55	97.99
2000	2	19	12	37324.8	3.99	324.7	0.0	-4.19	-19.87	126.85
2000	2	20	12	37670.4	0.73	302.73	0.0	-1.76	-14.33	183.42
2000	2	21	12	37670.4	0.02	403.57	0.0	-0.9	-15.53	167.57
2000	2	22	12	38016.0	0.06	340.53	0.0	-1.55	-19.23	136.71
2000	2	23	12	38016.0	0.16	346.86	0.0	3.94	-17.29	216.8
2000	2	24	12	38361.6	0.04	348.0	0.0	8.75	-1.22	504.48
2000	2	25	12	38361.6	0.0	419.43	0.0	11.59	-4.76	436.19
2000	2	26	12	38707.2	0.06	315.02	0.0	5.47	-7.8	363.6
2000	2	27	12	38707.2	0.08	303.45	0.0	7.07	-4.07	484.63
2000	2	28	12	39052.8	5.21	228.89	0.0	9.04	2.59	682.16
2000	2	29	12	39062.68	2.71	222.14	0.0	9.38	0.05	630.19
2000	3	1	12	39398.4	0.22	213.62	0.0	6.26	-0.48	578.2
2000	3	2	12	39628.39	6.55	247.41	0.0	6.45	-0.49	568.64
2000	3	3	12	39744.0	8.88	167.55	0.0	4.35	-1.64	518.73
2000	3	4	12	40089.6	2.58	190.48	0.0	2.58	-1.66	506.43
2000	3	5	12	40089.6	0.45	267.88	0.0	4.24	-3.19	472.04
2000	3	6	12	40435.2	0.07	331.55	0.0	4.47	-2.8	456.46
2000	3	7	12	40435.2	0.0	406.97	0.0	4.69	-5.85	390.13
2000	3	8	12	40780.8	0.0	450.61	0.0	9.18	-5.08	427.03
2000	3	9	12	40780.8	3.3	319.48	0.0	7.61	-2.28	484.59
2000	3	10	12	41126.4	1.21	348.83	0.0	7.34	-4.86	409.25
2000	3	11	12	41126.4	9.16	284.76	0.0	2.35	-6.83	358.79
2000	3	12	12	41472.0	21.46	241.45	0.0	1.42	-4.0	402.53
2000	3	13	12	41817.6	5.43	390.72	0.0	4.98	-7.07	324.91
2000	3	14	12	41817.6	0.11	495.64	0.0	2.67	-13.45	228.44
2000	3	15	12	42163.2	0.0	491.83	0.0	5.73	-9.63	345.01
2000	3	16	12	42163.2	9.53	335.7	0.0	10.98	1.26	579.96
2000	3	17	12	42508.8	8.77	396.44	0.0	10.98	-7.2	351.72
2000	3	18	12	42508.8	1.7	401.62	0.0	2.11	-14.21	195.34
2000	3	19	12	42854.4	0.01	513.34	0.0	0.79	-15.19	187.83
2000	3	20	12	42854.4	0.0	515.53	0.0	4.76	-11.19	261.32
2000	3	21	12	43200.0	0.0	505.64	0.0	7.57	-6.83	357.24
2000	3	22	12	43545.6	0.0	509.49	0.0	10.7	-4.73	421.58
2000	3	23	12	43545.6	0.0	520.62	0.0	13.02	-4.33	463.06
2000	3	24	12	43891.2	0.0	507.93	0.0	13.59	-1.31	527.37
2000	3	25	12	43891.2	0.57	409.49	0.0	11.81	-4.4	469.67
2000	3	26	12	44236.8	0.23	405.35	0.0	12.93	-2.33	520.85
2000	3	27	12	44236.8	0.02	526.08	0.0	14.67	-1.82	551.35
2000	3	28	12	44582.4	22.9	389.65	0.0	12.61	0.01	611.55
2000	3	29	12	44582.4	8.89	378.79	0.0	11.7	0.38	616.16
2000	3	30	12	44928.0	0.8	396.35	0.0	9.11	-0.86	564.71
2000	3	31	12	45273.6	0.06	381.44	0.0	9.97	-1.46	548.87
2000	4	1	12	45273.6	0.01	496.41	0.0	10.9	-1.01	566.25
2000	4	2	12	45619.2	4.81	387.43	0.0	12.29	0.1	609.0
2000	4	3	12	45619.2	5.34	408.89	0.0	13.81	-0.94	611.52
2000	4	4	12	45964.8	15.13	321.11	0.0	10.8	2.6	704.92
2000	4	5	12	45964.8	5.41	302.26	0.0	9.78	2.47	677.18
2000	4	6	12	46310.4	0.92	389.55	0.0	10.14	-1.78	552.51
2000	4	7	12	46310.4	0.6	378.6	0.0	10.14	-0.75	578.89
2000	4	8	12	46656.0	1.37	376.01	0.0	11.32	0.39	629.44
2000	4	9	12	46771.61	10.58	399.39	0.0	14.15	1.19	648.92
2000	4	10	12	47001.6	3.05	404.77	0.0	12.21	-1.14	548.76
2000	4	11	12	47337.32	3.71	391.82	0.0	7.64	-4.13	459.93
2000	4	12	12	47347.2	3.13	362.36	0.0	7.69	-2.02	491.04
2000	4	13	12	47692.8	0.61	407.53	0.0	5.36	-3.65	438.86
2000	4	14	12	47692.8	0.01	534.26	0.0	8.52	-4.52	451.34
2000	4	15	12	48038.4	0.0	546.02	0.0	14.48	-0.63	600.56
2000	4	16	12	48038.4	0.0	539.53	0.0	17.62	2.92	666.91
2000	4	17	12	48384.0	0.0	518.01	0.0	10.73	-3.26	458.37
2000	4	18	12	48384.0	0.0	542.68	0.0	8.33	-4.83	432.85
2000	4	19	12	48729.6	0.76	380.58	0.0	9.19	-1.27	548.9
2000	4	20	12	48729.6	0.36	349.75	0.0	7.83	1.05	627.38
2000	4	21	12	49075.2	3.76	390.94	0.0	12.46	1.49	647.42
2000	4	22	12	49075.2	24.71	343.81	0.0	8.6	0.31	615.37
2000	4	23	12	49420.8	40.49	236.88	0.0	6.47	1.74	654.94
2000	4	24	12	49420.8	17.23	276.57	0.0	7.08	1.52	630.74
2000	4	25	12	49766.4	2.37	361.64	0.0	5.45	-1.02	535.06
2000	4	26	12	49766.4	0.78	383.23	0.0	6.85	-2.25	510.07
2000	4	27	12	50112.0	1.14	391.41	0.0	8.53	-1.11	546.56
2000	4	28	12	50112.0	0.25	447.62	0.0	7.1	-0.41	563.34
2000	4	29	12	50457.6	0.19	447.98	0.0	13.24	-0.72	608.36
2000	4	30	12	50457.6	0.18	455.14	0.0	15.36	2.05	663.27
2000	5	1	12	50803.2	0.2	473.54	0.0	13.47	-2.05	573.8
2000	5	2	12	50803.2	0.07	471.7	0.0	14.26	1.98	650.36
2000	5	3	12	51148.8	0.01	584.81	0.0	14.64	-1.59	574.02
2000	5	4	12	51148.8	0.39	433.22	0.0	14.67	0.97	698.2
2000	5	5	12	51412.46	0.23	422.36	0.0	18.1	5.27	871.38
2000	5	6	12	51494.4	0.16	440.43	0.0	22.46	5.01	919.19
2000	5	7	12	51641.93	3.93	424.65	0.0	21.46	7.01	1010.92
2000	5	8	12	51840.0	2.43	404.64	0.0	20.43	8.23	1046.23
2000	5	9	12	51862.4	9.76	423.25	0.0	20.67	6.5	908.07
2000	5	10	12	52185.6	5.93	324.53	0.0	14.21	1.1	664.98
2000	5	11	12	52185.6	14.0	290.4	0.0	7.7	1.67	683.9
2000	5	12	12	52449.26	3.45	392.36	0.0	11.2	3.98	759.72
2000	5	13	12	52531.2	3.0	415.54	0.0	15.35	2.82	764.79
2000	5	14	12	52646.81	3.02	400.99	0.0	15.59	4.33	813.77
2000	5	15	12	52876.8	0.59	524.74	0.0	16.03	4.7	790.2
2000	5	16	12	52876.8	0.0	566.2	0.0	17.88	2.57	747.39
2000	5	17	12	53075.75	0.03	493.85	0.0	18.9	4.71	844.83
2000	5	18	12	53222.4	11.15	391.95	0.0	17.52	6.13	882.38
2000	5	19	12	53244.8	3.93	458.13	0.0	14.6	3.89	747.15
2000	5	20	12	53558.12	0.26	567.43	0.0	15.49	0.22	648.46
2000	5	21	12	53568.0	0.27	423.19	0.0	17.74	2.87	790.67
2000	5	22	12	53590.4	0.48	411.27	0.0	18.49	7.05	926.46
2000	5	23	12	53903.73	2.85	385.28	0.0	15.82	4.54	821.89
2000	5	24	12	53913.6	11.5	301.45	0.0	11.93	3.83	805.75
2000	5	25	12	53936.0	10.9	227.04	0.0	11.56	6.55	921.11
2000	5	26	12	54112.55	5.0	337.81	0.0	13.88	7.09	953.13
2000	5	27	12	54259.2	0.76	515.92	0.0	19.39	7.02	951.65
2000	5	28	12	54259.2	0.0	472.04	0.0	16.62	6.66	919.31
2000	5	29	12	54374.81	0.0	433.47	0.0	14.56	6.2	845.64
2000	5	30	12	54594.93	0.0	553.98	0.0	16.74	1.95	733.02
2000	5	31	12	54604.8	0.0	529.62	0.0	17.72	4.88	884.82
2000	6	1	12	54604.8	0.0	537.97	0.0	23.99	8.7	1073.49
2000	6	2	12	54683.51	0.0	552.72	0.0	27.07	8.12	1085.16
2000	6	3	12	54803.75	0.0	502.22	0.0	21.42	9.4	1066.6
2000	6	4	12	54950.4	0.4	405.26	0.0	20.59	5.98	943.07
2000	6	5	12	54950.4	0.2	417.01	0.0	19.12	6.4	899.79
2000	6	6	12	54950.4	5.35	418.2	0.0	19.0	3.08	802.59
2000	6	7	12	55029.11	13.82	394.17	0.0	17.66	5.0	841.83
2000	6	8	12	55097.93	3.82	406.16	0.0	17.57	3.67	874.2
2000	6	9	12	55214.06	0.33	417.42	0.0	23.05	8.6	1101.92
2000	6	10	12	55296.0	1.47	371.14	0.0	21.16	9.17	1060.24
2000	6	11	12	55296.0	6.13	333.36	0.0	14.96	4.69	816.08
2000	6	12	12	55296.0	1.64	379.29	0.0	13.39	2.97	742.32
2000	6	13	12	55296.0	0.03	546.8	0.0	18.4	3.3	755.19
2000	6	14	12	55296.0	0.0	556.58	0.0	20.61	3.6	823.87
2000	6	15	12	55318.4	0.19	382.52	0.0	19.67	7.09	1032.12
2000	6	16	12	55374.71	0.09	375.17	0.0	21.98	10.76	1308.3
2000	6	17	12	55374.71	4.3	384.76	0.0	29.97	14.17	1511.11
2000	6	18	12	55411.61	3.54	405.03	0.0	30.02	10.44	1318.71
2000	6	19	12	55411.61	1.16	390.89	0.0	24.65	11.69	1305.31
2000	6	20	12	55411.61	0.14	503.89	0.0	24.18	11.07	1261.83
2000	6	21	12	55411.61	6.22	381.67	0.0	25.39	11.49	1357.1
2000	6	22	12	55411.61	4.24	358.32	0.0	25.19	13.21	1458.55
2000	6	23	12	55411.61	0.77	402.45	0.0	27.85	12.74	1381.0
2000	6	24	12	55374.71	0.02	535.83	0.0	26.36	9.42	1192.13
2000	6	25	12	55318.4	0.19	382.36	0.0	25.15	10.74	1351.46
2000	6	26	12	55296.0	0.18	364.37	0.0	28.05	14.5	1611.22
2000	6	27	12	55296.0	12.12	369.13	0.0	29.37	14.93	1583.35
2000	6	28	12	55296.0	3.18	479.7	0.0	25.09	12.54	1391.2
2000	6	29	12	55296.0	0.08	384.46	0.0	26.37	12.95	1420.29
2000	6	30	12	55296.0	3.57	339.99	0.0	23.09	12.02	1332.81
2000	7	1	12	55286.12	1.49	391.66	0.0	23.03	10.93	1269.55
2000	7	2	12	55149.35	0.15	516.71	0.0	27.03	11.59	1338.59
2000	7	3	12	55066.01	2.27	358.41	0.0	26.07	13.36	1511.04
2000	7	4	12	54972.8	3.02	355.29	0.0	27.72	14.97	1580.15
2000	7	5	12	54950.4	3.24	346.76	0.0	24.59	12.99	1365.72
2000	7	6	12	54950.4	0.69	506.79	0.0	23.22	9.54	1189.71
2000	7	7	12	54940.52	11.25	353.52	0.0	24.3	12.34	1325.32
2000	7	8	12	54752.33	3.43	342.14	0.0	21.18	10.43	1199.52
2000	7	9	12	54627.19	3.52	374.19	0.0	22.1	9.07	1181.09
2000	7	10	12	54604.8	5.85	356.33	0.0	24.23	12.11	1310.15
2000	7	11	12	54604.8	1.39	362.83	0.0	22.43	10.08	1210.72
2000	7	12	12	54458.15	0.29	382.63	0.0	24.91	10.25	1224.57
2000	7	13	12	54281.6	0.14	439.9	0.0	28.12	9.94	1300.25
2000	7	14	12	54259.2	0.05	387.99	0.0	27.58	14.37	1522.83
2000	7	15	12	54249.32	0.54	377.84	0.0	27.23	12.73	1428.62
2000	7	16	12	54029.21	15.85	361.74	0.0	24.66	11.77	1335.66
2000	7	17	12	53913.6	14.13	320.7	0.0	21.17	11.24	1306.9
2000	7	18	12	53913.6	5.28	266.04	0.0	19.87	12.43	1347.2
2000	7	19	12	53715.53	0.89	362.53	0.0	21.05	11.0	1209.9
2000	7	20	12	53568.0	0.05	528.9	0.0	23.03	7.21	1035.92
2000	7	21	12	53568.0	0.84	402.02	0.0	24.57	8.55	1189.08
2000	7	22	12	53369.93	2.62	329.35	0.0	24.21	13.49	1420.99
2000	7	23	12	53222.4	1.03	371.16	0.0	22.44	11.78	1293.89
2000	7	24	12	53222.4	0.1	511.46	0.0	26.94	11.52	1272.43
2000	7	25	12	52955.51	0.0	502.59	0.0	27.59	12.76	1322.99
2000	7	26	12	52876.8	0.0	518.18	0.0	28.18	11.41	1284.46
2000	7	27	12	52794.86	0.51	347.25	0.0	24.51	12.57	1382.0
2000	7	28	12	52531.2	1.55	291.86	0.0	22.19	13.5	1436.33
2000	7	29	12	52531.2	0.37	456.24	0.0	25.35	13.83	1431.9
2000	7	30	12	52301.21	0.0	452.93	0.0	25.41	14.06	1395.99
2000	7	31	12	52185.6	0.0	497.01	0.0	25.13	11.02	1207.01
2000	8	1	12	52103.66	0.27	380.71	0.0	24.39	9.25	1177.97
2000	8	2	12	51840.0	1.02	338.42	0.0	23.2	11.9	1353.85
2000	8	3	12	51840.0	0.27	239.84	0.0	21.05	14.63	1543.26
2000	8	4	12	51494.4	0.19	311.06	0.0	24.4	15.39	1548.37
2000	8	5	12	51494.4	0.05	493.82	0.0	26.17	11.77	1314.91
2000	8	6	12	51227.51	0.18	365.16	0.0	26.26	12.18	1394.48
2000	8	7	12	51148.8	5.94	323.57	0.0	25.2	14.28	1548.75
2000	8	8	12	50918.81	2.51	224.43	0.0	22.9	15.54	1646.86
2000	8	9	12	50803.2	2.39	343.81	0.0	28.36	15.47	1655.19
2000	8	10	12	50605.13	3.58	324.12	0.0	26.14	15.22	1527.82
2000	8	11	12	50457.6	0.8	486.29	0.0	24.89	11.05	1234.01
2000	8	12	12	50310.95	0.0	450.64	0.0	23.25	12.03	1263.18
2000	8	13	12	50112.0	0.0	414.47	0.0	22.25	12.69	1349.03
2000	8	14	12	50030.06	1.94	253.89	0.0	21.58	14.42	1531.9
2000	8	15	12	49766.4	3.94	226.42	0.0	21.74	15.53	1612.71
2000	8	16	12	49684.46	3.61	279.47	0.0	22.89	14.71	1508.65
2000	8	17	12	49420.8	1.03	299.63	0.0	21.06	12.08	1249.76
2000	8	18	12	49338.86	0.08	494.9	0.0	22.04	7.45	1009.98
2000	8	19	12	49075.2	0.03	380.45	0.0	21.73	10.02	1117.65
2000	8	20	12	48993.26	9.91	329.09	0.0	19.66	9.06	1080.65
2000	8	21	12	48729.6	2.79	345.12	0.0	20.35	8.5	1050.28
2000	8	22	12	48582.95	0.18	437.97	0.0	23.81	7.86	1054.91
2000	8	23	12	48384.0	5.53	353.07	0.0	23.91	10.11	1189.67
2000	8	24	12	48185.93	2.78	336.19	0.0	23.41	11.4	1261.95
2000	8	25	12	48038.4	0.38	364.16	0.0	24.16	11.47	1273.43
2000	8	26	12	47715.19	0.01	466.35	0.0	26.76	12.35	1315.93
2000	8	27	12	47692.8	0.72	350.26	0.0	28.07	12.12	1317.75
2000	8	28	12	47347.2	0.19	460.92	0.0	23.83	10.2	1123.84
2000	8	29	12	47347.2	0.0	479.76	0.0	24.83	8.03	1039.94
2000	8	30	12	47001.6	0.0	460.34	0.0	24.13	9.91	1145.14
2000	8	31	12	47001.6	0.0	448.18	0.0	26.04	12.05	1333.9
2000	9	1	12	46656.0	2.57	328.93	0.0	29.13	14.59	1543.16
2000	9	2	12	46656.0	8.59	340.7	0.0	29.86	12.22	1401.93
2000	9	3	12	46310.4	3.41	195.43	0.0	23.97	11.2	1242.5
2000	9	4	12	46310.4	3.34	251.7	0.0	17.19	9.39	1060.89
2000	9	5	12	45964.8	0.79	442.29	0.0	16.12	3.66	756.98
2000	9	6	12	45734.81	0.0	472.95	0.0	17.82	1.27	673.42
2000	9	7	12	45619.2	0.0	464.38	0.0	20.3	3.61	778.27
2000	9	8	12	45273.6	0.0	457.8	0.0	23.41	6.35	935.74
2000	9	9	12	45273.6	0.0	438.8	0.0	24.73	9.13	1054.9
2000	9	10	12	44928.0	0.0	450.12	0.0	24.61	7.2	969.04
2000	9	11	12	44928.0	0.0	441.9	0.0	22.73	6.47	964.33
2000	9	12	12	44582.4	7.51	292.8	0.0	21.47	9.72	1166.5
2000	9	13	12	44582.4	8.36	252.0	0.0	21.09	11.73	1229.55
2000	9	14	12	44236.8	1.68	434.55	0.0	22.72	6.03	959.68
2000	9	15	12	44090.15	13.52	306.39	0.0	21.06	7.09	1012.13
2000	9	16	12	43891.2	3.59	246.37	0.0	17.41	9.04	1057.21
2000	9	17	12	43545.6	0.01	385.07	0.0	17.78	5.9	921.81
2000	9	18	12	43545.6	0.0	326.65	0.0	16.67	7.63	985.78
2000	9	19	12	43200.0	0.01	344.59	0.0	21.53	7.59	1055.64
2000	9	20	12	43200.0	0.34	270.05	0.0	21.69	10.02	1228.52
2000	9	21	12	42854.4	0.12	204.36	0.0	19.91	12.91	1317.8
2000	9	22	12	42854.4	0.01	382.62	0.0	20.31	7.08	989.88
2000	9	23	12	42508.8	6.16	268.01	0.0	16.87	5.74	921.7
2000	9	24	12	42361.27	3.21	263.55	0.0	17.99	6.91	924.08
2000	9	25	12	42163.2	0.42	393.18	0.0	16.51	2.12	724.19
2000	9	26	12	41817.6	0.32	286.78	0.0	15.03	1.8	695.91
2000	9	27	12	41817.6	0.15	301.31	0.0	16.09	1.26	684.19
2000	9	28	12	41472.0	2.38	294.96	0.0	17.17	1.3	643.63
2000	9	29	12	41472.0	0.62	385.66	0.0	10.01	-4.17	470.76
2000	9	30	12	41126.4	0.0	386.53	0.0	13.46	-1.54	562.74
2000	10	1	12	41126.4	0.01	348.72	0.0	18.3	2.07	737.48
2000	10	2	12	40780.8	0.01	329.62	0.0	19.75	5.56	904.49
2000	10	3	12	40665.19	0.0	346.81	0.0	20.98	7.48	985.37
2000	10	4	12	40435.2	0.2	261.52	0.0	19.82	5.9	919.99
2000	10	5	12	40089.6	6.82	251.0	0.0	16.21	4.02	823.7
2000	10	6	12	40089.6	16.07	199.67	0.0	12.66	4.3	803.7
2000	10	7	12	39744.0	4.84	168.65	0.0	10.11	3.84	763.62
2000	10	8	12	39744.0	0.49	226.79	0.0	10.97	2.08	686.19
2000	10	9	12	39398.4	8.15	226.37	0.0	9.42	-0.57	588.2
2000	10	10	12	39398.4	7.19	134.86	0.0	6.74	-0.71	563.59
2000	10	11	12	39052.8	1.36	231.18	0.0	7.38	-0.27	576.47
2000	10	12	12	39052.8	0.01	321.19	0.0	10.97	-0.96	586.83
2000	10	13	12	38707.2	0.0	344.53	0.0	18.56	1.37	719.05
2000	10	14	12	38684.81	0.0	331.26	0.0	21.42	5.04	886.56
2000	10	15	12	38361.6	0.0	309.31	0.0	19.29	6.24	861.7
2000	10	16	12	38245.99	0.0	338.57	0.0	12.65	-4.17	501.67
2000	10	17	12	38016.0	0.0	302.02	0.0	9.33	-2.29	508.63
2000	10	18	12	37817.05	9.9	224.11	0.0	11.09	-0.65	595.69
2000	10	19	12	37670.4	7.96	199.85	0.0	11.54	1.91	687.06
2000	10	20	12	37406.74	1.41	279.97	0.0	12.58	1.79	694.43
2000	10	21	12	37324.8	0.0	304.52	0.0	16.85	2.2	712.36
2000	10	22	12	37061.14	0.0	308.85	0.0	16.72	0.52	626.56
2000	10	23	12	36979.2	0.0	310.36	0.0	11.14	-4.83	457.92
2000	10	24	12	36715.54	0.0	305.97	0.0	12.68	-3.46	511.79
2000	10	25	12	36633.6	0.0	291.34	0.0	16.92	1.56	703.73
2000	10	26	12	36369.94	0.0	283.24	0.0	18.51	3.83	821.21
2000	10	27	12	36288.0	0.04	222.23	0.0	18.56	4.77	877.32
2000	10	28	12	36089.05	0.95	167.16	0.0	14.47	5.04	820.44
2000	10	29	12	35942.4	10.44	181.08	0.0	8.87	-2.56	537.89
2000	10	30	12	35794.87	15.3	105.0	0.0	4.57	-2.0	524.87
2000	10	31	12	35596.8	10.98	126.95	0.0	6.51	0.54	620.93
2000	11	1	12	35481.19	2.73	120.12	0.0	6.86	1.25	665.1
2000	11	2	12	35251.2	0.19	178.23	0.0	8.89	2.43	705.59
2000	11	3	12	35228.81	0.0	238.86	0.0	12.2	1.55	689.56
2000	11	4	12	34905.6	0.0	254.61	0.0	13.46	0.64	666.99
2000	11	5	12	34905.6	5.57	120.92	0.0	9.73	1.68	681.34
2000	11	6	12	34560.0	2.49	87.46	0.0	6.1	1.98	699.57
2000	11	7	12	34560.0	0.28	113.76	0.0	7.9	3.5	768.58
2000	11	8	12	34296.34	0.0	136.57	0.0	9.79	4.78	817.66
2000	11	9	12	34214.4	0.01	166.44	0.0	10.4	3.17	755.87
2000	11	10	12	34098.79	0.24	158.77	0.0	9.91	1.35	700.94
2000	11	11	12	33868.8	0.12	120.21	0.0	9.26	3.24	764.17
2000	11	12	12	33868.8	0.01	162.42	0.0	10.8	4.35	810.62
2000	11	13	12	33605.14	0.62	102.4	0.0	9.03	3.91	797.54
2000	11	14	12	33523.2	13.37	88.3	0.0	8.35	4.05	789.7
2000	11	15	12	33444.49	8.92	121.52	0.0	9.17	2.9	730.96
2000	11	16	12	33177.6	1.46	167.53	0.0	8.28	-0.17	614.42
2000	11	17	12	33177.6	0.01	205.26	0.0	8.08	-1.19	551.15
2000	11	18	12	33030.07	0.0	223.51	0.0	8.1	-3.97	453.01
2000	11	19	12	32832.0	0.0	225.11	0.0	5.09	-7.14	362.64
2000	11	20	12	32832.0	4.63	183.76	0.0	3.78	-7.04	363.02
2000	11	21	12	32684.47	1.94	167.08	0.0	3.68	-4.74	406.7
2000	11	22	12	32486.4	0.46	157.37	0.0	1.25	-5.47	384.67
2000	11	23	12	32486.4	0.07	204.94	0.0	1.26	-6.17	348.23
2000	11	24	12	32370.79	0.0	235.19	0.0	-0.79	-11.3	246.26
2000	11	25	12	32150.68	0.0	241.66	0.0	-2.24	-14.05	202.28
2000	11	26	12	32140.8	20.18	214.51	0.0	2.14	-11.91	258.04
2000	11	27	12	32118.4	10.99	199.08	0.0	5.91	-4.64	435.53
2000	11	28	12	31941.85	1.6	153.62	0.0	5.61	0.39	590.93
2000	11	29	12	31795.2	1.74	141.14	0.0	4.51	-0.24	583.26
2000	11	30	12	31795.2	0.49	149.19	0.0	3.77	-0.98	544.18
2000	12	1	12	31772.8	0.01	190.24	0.0	2.86	-2.83	464.11
2000	12	2	12	31647.67	0.0	228.06	0.0	0.98	-7.28	334.23
2000	12	3	12	31459.48	0.0	246.54	0.0	-1.57	-12.06	240.99
2000	12	4	12	31449.6	0.0	250.13	0.0	1.22	-10.74	259.5
2000	12	5	12	31449.6	0.14	201.1	0.0	5.24	-9.4	299.44
2000	12	6	12	31427.2	0.04	250.3	0.0	6.26	-8.58	305.38
2000	12	7	12	31333.99	2.49	185.42	0.0	0.92	-12.42	215.5
2000	12	8	12	31250.65	0.65	250.26	0.0	-6.45	-19.59	125.13
2000	12	9	12	31113.88	0.0	241.02	0.0	-9.64	-20.56	106.19
2000	12	10	12	31104.0	0.21	198.37	0.0	-7.13	-20.08	124.16
2000	12	11	12	31104.0	4.47	199.58	0.0	1.14	-13.36	236.51
2000	12	12	12	31104.0	7.95	175.31	0.0	5.79	-3.27	416.24
2000	12	13	12	31104.0	2.32	202.19	0.0	8.05	-13.5	247.08
2000	12	14	12	31104.0	12.04	179.61	0.0	2.12	-12.71	219.02
2000	12	15	12	31081.6	4.36	205.1	0.0	-0.08	-10.84	242.61
2000	12	16	12	31025.29	12.88	202.26	0.0	-0.75	-13.62	238.58
2000	12	17	12	30988.39	17.63	205.3	0.0	9.38	-5.57	417.74
2000	12	18	12	30988.39	4.72	205.61	0.0	11.76	-1.17	532.27
2000	12	19	12	30988.39	8.28	207.03	0.0	5.64	-9.64	325.39
2000	12	20	12	30988.39	7.51	198.66	0.0	1.82	-8.89	291.73
2000	12	21	12	30988.39	1.42	240.86	0.0	-1.36	-11.86	240.1
2000	12	22	12	30988.39	2.84	169.85	0.0	-4.02	-10.88	239.51
2000	12	23	12	31025.29	1.14	185.25	0.0	-4.01	-11.76	217.1
2000	12	24	12	31025.29	2.16	208.95	0.0	-5.51	-17.57	148.84
2000	12	25	12	31081.6	0.6	192.05	0.0	-8.46	-17.36	135.55
2000	12	26	12	31104.0	0.9	206.42	0.0	-8.2	-19.27	123.5
2000	12	27	12	31104.0	0.23	216.81	0.0	-9.31	-16.66	144.31
2000	12	28	12	31104.0	0.44	197.2	0.0	-6.08	-15.46	174.02
2000	12	29	12	31104.0	0.12	221.43	0.0	-2.77	-10.59	253.35
2000	12	30	12	31104.0	6.21	174.63	0.0	0.01	-6.86	344.22
2000	12	31	12	31144.97	5.83	164.44	0.0	1.29	-4.32	405.44
2001	1	1	12	31185.94	1.12	213.08	0.0	1.68	-6.2	351.5
2001	1	2	12	31302.07	0.0	266.06	0.0	-0.04	-13.39	222.9
2001	1	3	12	31370.89	0.45	206.03	0.0	-3.05	-13.43	203.72
2001	1	4	12	31449.6	0.75	197.41	0.0	-3.49	-12.37	210.28
2001	1	5	12	31449.6	0.31	223.0	0.0	-2.57	-15.12	185.31
2001	1	6	12	31449.6	11.26	222.81	0.0	-0.94	-13.19	212.27
2001	1	7	12	31596.25	4.78	226.99	0.0	-0.89	-10.72	237.35
2001	1	8	12	31716.49	0.48	284.38	0.0	-1.09	-16.07	174.82
2001	1	9	12	31795.2	0.03	257.62	0.0	-0.58	-16.44	163.12
2001	1	10	12	31795.2	0.01	284.07	0.0	-1.94	-15.61	168.49
2001	1	11	12	31805.08	0.08	238.23	0.0	-4.68	-15.43	166.17
2001	1	12	12	32025.19	0.02	288.16	0.0	-2.85	-16.71	151.69
2001	1	13	12	32140.8	0.0	287.3	0.0	-4.79	-18.34	137.19
2001	1	14	12	32140.8	0.0	295.76	0.0	-1.4	-16.86	154.2
2001	1	15	12	32287.45	1.66	243.88	0.0	1.22	-15.86	172.09
2001	1	16	12	32464.0	2.04	230.85	0.0	-2.51	-14.32	198.9
2001	1	17	12	32486.4	0.65	202.13	0.0	-1.55	-9.25	247.14
2001	1	18	12	32496.28	0.06	310.76	0.0	-3.52	-21.67	125.2
2001	1	19	12	32809.6	2.49	245.04	0.0	-3.25	-17.14	153.44
2001	1	20	12	32832.0	1.1	252.45	0.0	-1.65	-12.63	205.83
2001	1	21	12	32841.88	0.2	199.31	0.0	-5.25	-13.02	189.86
2001	1	22	12	33155.2	0.02	283.31	0.0	-7.35	-17.43	143.92
2001	1	23	12	33177.6	0.0	310.52	0.0	-3.81	-17.49	142.66
2001	1	24	12	33324.25	0.0	323.76	0.0	1.17	-18.13	157.2
2001	1	25	12	33523.2	0.08	294.11	0.0	1.91	-12.01	214.68
2001	1	26	12	33523.2	0.02	327.79	0.0	1.07	-17.11	164.93
2001	1	27	12	33753.19	0.71	257.77	0.0	-0.87	-15.28	178.07
2001	1	28	12	33868.8	0.46	260.39	0.0	-1.68	-13.87	187.53
2001	1	29	12	33950.74	0.07	330.49	0.0	-1.02	-17.03	151.81
2001	1	30	12	34214.4	9.87	269.81	0.0	-2.52	-18.28	151.3
2001	1	31	12	34214.4	11.35	260.34	0.0	0.34	-11.95	219.68
2001	2	1	12	34481.29	4.45	226.28	0.0	-3.4	-12.09	215.86
2001	2	2	12	34560.0	0.8	254.0	0.0	-3.54	-13.94	196.46
2001	2	3	12	34758.07	0.4	249.03	0.0	-2.64	-12.67	196.03
2001	2	4	12	34905.6	0.09	355.73	0.0	-3.09	-19.68	140.63
2001	2	5	12	34987.54	13.83	265.44	0.0	-1.99	-12.87	219.57
2001	2	6	12	35251.2	8.06	223.09	0.0	-0.26	-7.51	314.31
2001	2	7	12	35251.2	1.16	241.14	0.0	-1.39	-7.05	316.12
2001	2	8	12	35596.8	0.0	339.28	0.0	0.44	-10.72	249.24
2001	2	9	12	35596.8	4.81	301.18	0.0	1.0	-14.14	210.45
2001	2	10	12	35942.4	2.55	306.33	0.0	6.1	-11.46	234.26
2001	2	11	12	35942.4	0.34	391.6	0.0	3.15	-17.84	150.05
2001	2	12	12	36288.0	0.49	290.67	0.0	-4.32	-20.31	120.0
2001	2	13	12	36288.0	2.74	302.98	0.0	-2.73	-15.75	163.72
2001	2	14	12	36633.6	10.04	317.48	0.0	1.51	-14.38	199.82
2001	2	15	12	36633.6	4.83	304.25	0.0	1.84	-10.61	241.72
2001	2	16	12	36979.2	2.13	320.57	0.0	0.08	-15.06	192.4
2001	2	17	12	36979.2	0.8	318.7	0.0	1.12	-13.16	195.22
2001	2	18	12	37324.8	0.17	337.86	0.0	-1.82	-20.34	125.96
2001	2	19	12	37324.8	0.3	332.98	0.0	-3.61	-17.9	153.4
2001	2	20	12	37670.4	0.08	406.12	0.0	3.99	-11.09	266.8
2001	2	21	12	37670.4	0.06	311.51	0.0	6.56	-5.72	340.02
2001	2	22	12	38016.0	0.49	345.04	0.0	-0.84	-20.78	137.63
2001	2	23	12	38016.0	1.23	305.76	0.0	-5.92	-17.62	141.42
2001	2	24	12	38361.6	0.29	370.35	0.0	-3.8	-13.65	174.45
2001	2	25	12	38361.6	7.53	348.29	0.0	-3.64	-18.9	145.8
2001	2	26	12	38707.2	4.85	347.84	0.0	2.83	-12.44	218.27
2001	2	27	12	38707.2	0.76	428.69	0.0	2.83	-10.82	229.42
2001	2	28	12	39052.8	0.0	447.58	0.0	-1.31	-17.47	143.85
2001	3	1	12	39062.68	0.0	424.41	0.0	-7.56	-21.2	98.55
2001	3	2	12	39398.4	0.0	457.17	0.0	-7.61	-23.73	84.32
2001	3	3	12	39628.39	0.05	387.24	0.0	-6.95	-21.03	101.07
2001	3	4	12	39744.0	0.01	466.56	0.0	-3.0	-20.11	125.3
2001	3	5	12	40089.6	0.64	351.94	0.0	0.04	-13.24	219.13
2001	3	6	12	40089.6	4.16	263.12	0.0	0.18	-6.49	332.4
2001	3	7	12	40435.2	2.7	251.75	0.0	-0.83	-6.19	321.31
2001	3	8	12	40435.2	0.43	477.85	0.0	3.37	-13.37	228.63
2001	3	9	12	40780.8	8.22	368.56	0.0	4.94	-9.47	296.3
2001	3	10	12	40780.8	9.49	298.23	0.0	2.59	-5.62	366.34
2001	3	11	12	41126.4	3.37	290.26	0.0	1.51	-6.02	348.27
2001	3	12	12	41126.4	0.61	402.1	0.0	3.67	-9.06	295.34
2001	3	13	12	41472.0	10.53	356.66	0.0	2.36	-8.57	312.64
2001	3	14	12	41817.6	4.11	350.77	0.0	3.56	-5.18	397.66
2001	3	15	12	41817.6	0.36	398.56	0.0	6.1	-2.35	451.8
2001	3	16	12	42163.2	0.0	448.16	0.0	4.92	-5.64	364.68
2001	3	17	12	42163.2	0.0	501.71	0.0	5.97	-8.61	314.25
2001	3	18	12	42508.8	0.0	484.98	0.0	7.15	-5.66	388.93
2001	3	19	12	42508.8	0.0	399.9	0.0	6.95	-1.09	495.85
2001	3	20	12	42854.4	0.0	482.0	0.0	9.65	-2.5	461.35
2001	3	21	12	42854.4	0.0	518.58	0.0	11.7	-4.11	437.87
2001	3	22	12	43200.0	17.6	366.37	0.0	8.76	-1.75	493.56
2001	3	23	12	43545.6	9.64	252.99	0.0	4.98	-1.98	481.1
2001	3	24	12	43545.6	1.32	315.37	0.0	2.35	-2.66	444.75
2001	3	25	12	43891.2	0.29	400.63	0.0	5.16	-4.52	376.76
2001	3	26	12	43891.2	0.08	524.57	0.0	3.3	-10.05	270.97
2001	3	27	12	44236.8	0.0	491.06	0.0	2.59	-8.16	294.06
2001	3	28	12	44236.8	0.03	428.28	0.0	3.25	-6.96	320.81
2001	3	29	12	44582.4	0.01	510.77	0.0	4.35	-7.19	331.16
2001	3	30	12	44582.4	23.3	383.88	0.0	5.03	-4.73	395.79
2001	3	31	12	44928.0	16.02	290.02	0.0	2.37	-3.25	431.6
2001	4	1	12	45273.6	2.75	233.46	0.0	0.31	-3.62	412.4
2001	4	2	12	45273.6	0.89	324.15	0.0	0.87	-5.51	379.73
2001	4	3	12	45619.2	0.55	307.37	0.0	2.15	-3.54	415.07
2001	4	4	12	45619.2	0.13	433.92	0.0	5.56	-5.02	389.31
2001	4	5	12	45964.8	0.01	560.06	0.0	8.72	-5.27	384.99
2001	4	6	12	45964.8	0.0	568.21	0.0	10.39	-4.6	402.07
2001	4	7	12	46310.4	0.0	561.94	0.0	9.34	-4.36	406.06
2001	4	8	12	46310.4	1.22	425.94	0.0	7.54	-3.97	431.68
2001	4	9	12	46656.0	0.48	358.14	0.0	5.52	-2.08	486.44
2001	4	10	12	46771.61	0.04	510.39	0.0	9.24	-0.35	510.63
2001	4	11	12	47001.6	0.0	578.43	0.0	11.24	-4.09	433.89
2001	4	12	12	47337.32	8.86	445.73	0.0	11.16	-2.95	477.55
2001	4	13	12	47347.2	5.01	418.54	0.0	9.76	-1.05	527.99
2001	4	14	12	47692.8	0.74	386.24	0.0	6.88	-0.82	519.31
2001	4	15	12	47692.8	0.01	531.03	0.0	8.35	-1.88	476.35
2001	4	16	12	48038.4	0.0	570.14	0.0	10.31	-2.78	452.43
2001	4	17	12	48038.4	0.05	496.02	0.0	11.93	-3.62	456.42
2001	4	18	12	48384.0	12.37	434.77	0.0	10.27	-1.89	479.55
2001	4	19	12	48384.0	3.56	403.63	0.0	6.05	-4.03	419.7
2001	4	20	12	48729.6	0.08	585.45	0.0	10.0	-4.14	421.61
2001	4	21	12	48729.6	0.0	601.14	0.0	14.56	-3.08	505.8
2001	4	22	12	49075.2	0.07	477.8	0.0	17.37	2.13	681.85
2001	4	23	12	49075.2	0.02	589.24	0.0	19.92	2.89	714.43
2001	4	24	12	49420.8	0.07	484.35	0.0	19.76	2.7	727.09
2001	4	25	12	49420.8	0.02	563.44	0.0	16.79	3.62	679.48
2001	4	26	12	49766.4	0.0	596.09	0.0	14.41	-2.15	509.78
2001	4	27	12	49766.4	0.0	595.93	0.0	14.74	-1.48	522.87
2001	4	28	12	50112.0	0.0	583.41	0.0	14.81	-0.07	550.8
2001	4	29	12	50112.0	0.0	576.05	0.0	12.15	-1.36	531.04
2001	4	30	12	50457.6	0.06	469.79	0.0	13.98	0.39	611.11
2001	5	1	12	50457.6	0.09	464.24	0.0	17.52	2.01	681.12
2001	5	2	12	50803.2	0.02	593.55	0.0	21.88	3.05	749.66
2001	5	3	12	50803.2	0.0	595.54	0.0	29.71	6.29	933.91
2001	5	4	12	51148.8	1.64	449.64	0.0	28.25	8.4	1048.27
2001	5	5	12	51148.8	0.88	441.3	0.0	24.39	7.54	910.97
2001	5	6	12	51412.46	0.65	478.32	0.0	16.66	-0.25	599.97
2001	5	7	12	51494.4	0.14	595.96	0.0	18.52	0.61	595.06
2001	5	8	12	51641.93	0.0	603.16	0.0	22.84	2.02	647.08
2001	5	9	12	51840.0	0.0	602.11	0.0	22.91	2.05	657.55
2001	5	10	12	51862.4	0.0	583.64	0.0	19.92	2.99	693.35
2001	5	11	12	52185.6	0.0	586.69	0.0	22.93	4.76	768.62
2001	5	12	12	52185.6	0.0	593.36	0.0	26.0	5.77	835.86
2001	5	13	12	52449.26	1.61	414.37	0.0	20.84	6.86	881.9
2001	5	14	12	52531.2	2.47	354.5	0.0	15.81	5.5	812.53
2001	5	15	12	52646.81	1.78	320.56	0.0	12.47	4.37	777.71
2001	5	16	12	52876.8	0.64	246.33	0.0	11.13	5.71	776.87
2001	5	17	12	52876.8	0.08	522.73	0.0	13.57	1.79	618.43
2001	5	18	12	53075.75	4.33	447.42	0.0	18.02	1.66	665.47
2001	5	19	12	53222.4	8.56	376.64	0.0	15.98	5.21	761.15
2001	5	20	12	53244.8	2.13	434.84	0.0	15.66	2.81	710.11
2001	5	21	12	53558.12	0.05	558.23	0.0	20.58	5.72	754.01
2001	5	22	12	53568.0	0.0	593.81	0.0	21.03	2.38	672.61
2001	5	23	12	53590.4	0.0	583.95	0.0	22.14	4.39	727.7
2001	5	24	12	53903.73	0.0	566.47	0.0	20.29	4.47	718.23
2001	5	25	12	53913.6	0.0	594.87	0.0	22.86	2.88	691.89
2001	5	26	12	53936.0	0.0	582.6	0.0	22.86	4.77	754.22
2001	5	27	12	54112.55	1.64	443.3	0.0	22.64	4.65	815.96
2001	5	28	12	54259.2	6.07	328.36	0.0	17.88	7.75	935.3
2001	5	29	12	54259.2	2.59	312.6	0.0	16.3	8.11	923.23
2001	5	30	12	54374.81	0.29	531.41	0.0	18.7	5.58	762.0
2001	5	31	12	54594.93	0.54	460.06	0.0	17.45	2.65	690.37
2001	6	1	12	54604.8	0.14	499.67	0.0	16.36	4.78	765.4
2001	6	2	12	54604.8	11.16	386.03	0.0	18.43	6.41	875.5
2001	6	3	12	54683.51	7.9	264.65	0.0	14.44	7.15	927.97
2001	6	4	12	54803.75	4.08	281.85	0.0	14.69	7.72	963.26
2001	6	5	12	54950.4	3.83	348.37	0.0	17.91	8.27	998.37
2001	6	6	12	54950.4	1.56	391.07	0.0	21.44	8.88	1044.0
2001	6	7	12	54950.4	0.2	503.12	0.0	22.09	10.24	1033.66
2001	6	8	12	55029.11	0.0	564.57	0.0	24.57	7.66	909.11
2001	6	9	12	55097.93	0.0	561.17	0.0	24.0	6.96	928.01
2001	6	10	12	55214.06	0.0	518.6	0.0	24.31	11.43	1084.99
2001	6	11	12	55296.0	1.75	412.73	0.0	23.87	8.44	1023.2
2001	6	12	12	55296.0	4.91	383.04	0.0	22.03	9.64	1059.92
2001	6	13	12	55296.0	1.56	405.49	0.0	20.3	10.45	1086.05
2001	6	14	12	55296.0	0.1	544.22	0.0	27.35	11.2	1168.36
2001	6	15	12	55296.0	0.0	537.37	0.0	31.24	14.19	1368.7
2001	6	16	12	55318.4	0.11	404.94	0.0	32.47	14.04	1417.35
2001	6	17	12	55374.71	16.32	397.52	0.0	27.91	12.43	1317.76
2001	6	18	12	55374.71	6.76	375.51	0.0	25.78	13.16	1305.36
2001	6	19	12	55411.61	0.65	537.77	0.0	27.45	10.75	1242.87
2001	6	20	12	55411.61	0.05	350.57	0.0	26.99	15.16	1493.12
2001	6	21	12	55411.61	0.01	518.86	0.0	29.88	14.36	1365.27
2001	6	22	12	55411.61	0.81	350.86	0.0	24.29	12.84	1282.01
2001	6	23	12	55411.61	11.65	256.94	0.0	19.6	11.29	1235.82
2001	6	24	12	55411.61	6.46	274.79	0.0	20.57	13.15	1384.6
2001	6	25	12	55374.71	2.85	341.13	0.0	25.45	15.12	1496.07
2001	6	26	12	55318.4	0.51	515.85	0.0	29.71	14.95	1488.85
2001	6	27	12	55296.0	0.0	505.47	0.0	31.39	16.83	1605.75
2001	6	28	12	55296.0	0.0	500.96	0.0	30.85	16.36	1441.99
2001	6	29	12	55296.0	0.0	537.99	0.0	25.83	9.1	1024.22
2001	6	30	12	55296.0	0.0	506.44	0.0	25.02	11.81	1202.72
2001	7	1	12	55296.0	1.84	378.12	0.0	31.03	16.01	1425.25
2001	7	2	12	55286.12	0.65	472.69	0.0	26.45	10.42	1042.01
2001	7	3	12	55149.35	0.04	507.74	0.0	21.08	8.25	952.01
2001	7	4	12	55066.01	0.39	350.61	0.0	22.44	11.24	1154.43
2001	7	5	12	54972.8	1.97	368.08	0.0	23.6	12.45	1211.03
2001	7	6	12	54950.4	0.51	440.53	0.0	24.07	12.11	1127.04
2001	7	7	12	54950.4	0.03	452.57	0.0	24.09	9.07	1037.1
2001	7	8	12	54940.52	6.26	355.94	0.0	23.34	11.58	1193.79
2001	7	9	12	54752.33	4.34	282.54	0.0	20.48	12.56	1262.16
2001	7	10	12	54627.19	1.78	231.43	0.0	18.0	11.76	1225.92
2001	7	11	12	54604.8	0.65	280.25	0.0	19.19	11.61	1195.69
2001	7	12	12	54604.8	3.45	342.71	0.0	21.8	11.33	1129.88
2001	7	13	12	54458.15	0.88	495.15	0.0	22.68	10.45	1036.85
2001	7	14	12	54281.6	2.43	388.68	0.0	23.72	9.62	1060.85
2001	7	15	12	54259.2	3.08	384.7	0.0	24.18	10.34	1120.19
2001	7	16	12	54249.32	2.21	350.98	0.0	22.43	11.63	1205.87
2001	7	17	12	54029.21	6.93	305.05	0.0	21.06	12.54	1261.24
2001	7	18	12	53913.6	4.26	286.01	0.0	19.62	12.0	1201.52
2001	7	19	12	53913.6	0.74	390.95	0.0	23.98	10.19	1093.27
2001	7	20	12	53715.53	0.02	536.66	0.0	27.44	10.42	1076.47
2001	7	21	12	53568.0	0.0	527.94	0.0	28.22	11.97	1184.58
2001	7	22	12	53568.0	0.0	518.32	0.0	30.11	13.96	1333.01
2001	7	23	12	53369.93	0.0	498.3	0.0	29.75	15.53	1465.55
2001	7	24	12	53222.4	0.34	375.02	0.0	31.24	15.76	1609.19
2001	7	25	12	53222.4	0.91	355.6	0.0	30.63	17.19	1618.64
2001	7	26	12	52955.51	0.4	456.01	0.0	28.2	12.54	1194.85
2001	7	27	12	52876.8	0.06	490.92	0.0	21.78	6.22	860.37
2001	7	28	12	52794.86	0.01	524.25	0.0	23.59	7.52	903.7
2001	7	29	12	52531.2	0.0	525.02	0.0	25.74	9.61	1025.21
2001	7	30	12	52531.2	0.0	513.53	0.0	26.99	11.39	1114.95
2001	7	31	12	52301.21	0.0	518.55	0.0	27.14	10.89	1116.75
2001	8	1	12	52185.6	0.0	512.15	0.0	28.07	11.96	1214.69
2001	8	2	12	52103.66	0.0	506.85	0.0	31.25	14.3	1433.22
2001	8	3	12	51840.0	0.0	462.07	0.0	31.21	18.02	1647.94
2001	8	4	12	51840.0	0.0	489.85	0.0	31.57	15.94	1498.29
2001	8	5	12	51494.4	0.0	480.07	0.0	28.44	14.58	1407.66
2001	8	6	12	51494.4	0.1	398.12	0.0	29.72	14.69	1512.45
2001	8	7	12	51227.51	0.59	355.72	0.0	31.66	16.66	1645.67
2001	8	8	12	51148.8	1.15	374.67	0.0	32.76	14.15	1520.59
2001	8	9	12	50918.81	1.16	365.85	0.0	31.74	14.95	1606.13
2001	8	10	12	50803.2	3.29	343.28	0.0	32.27	17.52	1667.76
2001	8	11	12	50605.13	0.8	499.35	0.0	28.52	11.57	1196.21
2001	8	12	12	50457.6	0.0	495.17	0.0	25.83	9.97	1112.54
2001	8	13	12	50310.95	0.01	434.98	0.0	26.77	12.72	1266.64
2001	8	14	12	50112.0	0.0	435.16	0.0	25.13	13.26	1234.46
2001	8	15	12	50030.06	0.0	489.43	0.0	25.11	9.4	1043.07
2001	8	16	12	49766.4	0.0	502.85	0.0	28.02	9.63	1106.09
2001	8	17	12	49684.46	1.61	337.16	0.0	26.38	12.53	1335.7
2001	8	18	12	49420.8	0.79	281.03	0.0	24.13	14.58	1464.5
2001	8	19	12	49338.86	0.1	442.8	0.0	28.99	15.41	1440.68
2001	8	20	12	49075.2	3.05	342.73	0.0	27.49	12.84	1354.61
2001	8	21	12	48993.26	1.1	268.93	0.0	22.95	13.39	1376.7
2001	8	22	12	48729.6	0.51	264.24	0.0	22.5	13.64	1392.98
2001	8	23	12	48582.95	0.7	341.13	0.0	27.58	12.9	1354.28
2001	8	24	12	48384.0	0.15	449.86	0.0	27.71	13.49	1221.52
2001	8	25	12	48185.93	0.0	498.9	0.0	24.5	5.62	871.96
2001	8	26	12	48038.4	0.0	456.88	0.0	22.04	8.09	990.62
2001	8	27	12	47715.19	2.43	295.42	0.0	22.33	11.71	1263.91
2001	8	28	12	47692.8	5.66	275.08	0.0	23.92	14.18	1406.05
2001	8	29	12	47347.2	2.81	331.12	0.0	25.5	12.12	1217.2
2001	8	30	12	47347.2	0.39	477.37	0.0	24.04	6.97	961.26
2001	8	31	12	47001.6	3.65	339.03	0.0	24.55	9.68	1150.24
2001	9	1	12	47001.6	9.51	257.99	0.0	22.2	13.2	1246.23
2001	9	2	12	46656.0	2.25	468.12	0.0	21.1	5.37	840.29
2001	9	3	12	46656.0	0.0	462.07	0.0	21.33	5.71	839.87
2001	9	4	12	46310.4	3.42	327.16	0.0	21.71	7.96	995.13
2001	9	5	12	46310.4	1.14	343.26	0.0	20.86	10.22	1029.97
2001	9	6	12	45964.8	0.06	468.7	0.0	21.51	4.12	805.32
2001	9	7	12	45734.81	0.0	457.4	0.0	25.07	7.87	989.36
2001	9	8	12	45619.2	0.0	438.26	0.0	28.86	12.28	1268.7
2001	9	9	12	45273.6	0.0	433.31	0.0	31.36	14.17	1413.75
2001	9	10	12	45273.6	0.02	364.21	0.0	29.4	13.41	1393.92
2001	9	11	12	44928.0	0.14	313.27	0.0	25.55	12.99	1269.5
2001	9	12	12	44928.0	0.04	450.45	0.0	25.34	6.45	914.05
2001	9	13	12	44582.4	0.0	432.47	0.0	22.74	7.12	893.57
2001	9	14	12	44582.4	0.0	417.71	0.0	21.39	7.08	851.26
2001	9	15	12	44236.8	0.0	434.95	0.0	18.24	2.7	689.65
2001	9	16	12	44090.15	0.0	437.04	0.0	20.19	3.51	711.21
2001	9	17	12	43891.2	0.0	425.23	0.0	22.9	6.64	826.51
2001	9	18	12	43545.6	0.0	428.55	0.0	24.06	6.65	829.25
2001	9	19	12	43545.6	0.0	432.81	0.0	24.19	4.84	772.62
2001	9	20	12	43200.0	0.0	403.53	0.0	20.17	5.68	825.17
2001	9	21	12	43200.0	12.43	246.68	0.0	18.53	8.39	1050.37
2001	9	22	12	42854.4	8.8	156.41	0.0	18.66	12.95	1315.97
2001	9	23	12	42854.4	1.46	320.24	0.0	22.75	12.65	1232.0
2001	9	24	12	42508.8	0.16	289.2	0.0	23.97	9.18	1079.22
2001	9	25	12	42361.27	21.28	266.43	0.0	21.06	8.92	1084.35
2001	9	26	12	42163.2	8.93	213.04	0.0	20.04	11.38	1191.52
2001	9	27	12	41817.6	1.28	277.37	0.0	20.92	7.26	986.07
2001	9	28	12	41817.6	0.46	247.56	0.0	16.71	6.06	861.71
2001	9	29	12	41472.0	0.09	359.89	0.0	14.87	2.56	681.09
2001	9	30	12	41472.0	0.0	385.01	0.0	15.56	0.17	589.85
2001	10	1	12	41126.4	0.0	395.68	0.0	17.69	-0.48	593.89
2001	10	2	12	41126.4	0.0	385.41	0.0	20.36	2.29	704.61
2001	10	3	12	40780.8	0.0	380.22	0.0	22.39	4.16	809.35
2001	10	4	12	40665.19	0.0	361.91	0.0	22.59	6.52	939.35
2001	10	5	12	40435.2	0.0	339.47	0.0	23.34	9.2	1060.86
2001	10	6	12	40089.6	0.72	259.78	0.0	22.34	7.55	956.05
2001	10	7	12	40089.6	0.98	276.62	0.0	18.18	0.33	653.79
2001	10	8	12	39744.0	0.21	333.82	0.0	12.76	0.17	563.23
2001	10	9	12	39744.0	0.0	351.02	0.0	11.64	-2.97	487.62
2001	10	10	12	39398.4	0.0	347.53	0.0	15.1	0.1	607.82
2001	10	11	12	39398.4	0.0	335.3	0.0	19.99	4.79	797.51
2001	10	12	12	39052.8	0.0	335.16	0.0	21.65	5.68	857.73
2001	10	13	12	39052.8	0.0	334.85	0.0	21.91	5.35	842.08
2001	10	14	12	38707.2	0.99	232.91	0.0	17.28	4.27	813.28
2001	10	15	12	38684.81	3.25	190.75	0.0	14.16	5.01	819.41
2001	10	16	12	38361.6	19.39	225.74	0.0	15.98	3.47	780.73
2001	10	17	12	38245.99	8.78	233.8	0.0	17.17	4.83	809.21
2001	10	18	12	38016.0	1.02	301.46	0.0	14.36	1.56	647.09
2001	10	19	12	37817.05	0.0	326.4	0.0	12.51	-3.67	496.31
2001	10	20	12	37670.4	0.0	300.68	0.0	13.39	0.01	600.93
2001	10	21	12	37406.74	0.11	226.34	0.0	15.89	1.79	701.15
2001	10	22	12	37324.8	0.03	303.22	0.0	18.66	2.81	705.58
2001	10	23	12	37061.14	1.89	236.28	0.0	15.12	-2.96	555.85
2001	10	24	12	36979.2	1.68	216.62	0.0	14.87	0.78	706.54
2001	10	25	12	36715.54	1.79	179.88	0.0	18.01	7.74	953.35
2001	10	26	12	36633.6	1.34	203.72	0.0	15.02	2.02	722.89
2001	10	27	12	36369.94	0.25	289.16	0.0	13.96	-1.4	555.8
2001	10	28	12	36288.0	0.0	288.15	0.0	12.05	-3.58	462.99
2001	10	29	12	36089.05	0.0	282.37	0.0	9.32	-5.49	415.59
2001	10	30	12	35942.4	0.0	265.9	0.0	10.08	-3.16	454.26
2001	10	31	12	35794.87	6.14	222.26	0.0	7.65	-5.93	410.95
2001	11	1	12	35596.8	4.12	200.34	0.0	8.17	-2.8	534.03
2001	11	2	12	35481.19	2.0	169.66	0.0	12.93	4.2	839.34
2001	11	3	12	35251.2	0.77	142.98	0.0	17.22	9.22	1064.28
2001	11	4	12	35228.81	0.11	231.09	0.0	15.44	4.01	834.39
2001	11	5	12	34905.6	2.77	137.22	0.0	11.52	3.07	757.12
2001	11	6	12	34905.6	2.41	129.97	0.0	9.82	2.67	730.29
2001	11	7	12	34560.0	0.47	151.26	0.0	9.72	2.2	679.85
2001	11	8	12	34560.0	1.15	187.48	0.0	11.65	-2.67	543.85
2001	11	9	12	34296.34	2.54	162.63	0.0	9.39	-0.85	557.41
2001	11	10	12	34214.4	1.13	172.57	0.0	8.12	-3.54	487.51
2001	11	11	12	34098.79	1.96	141.67	0.0	5.82	-2.26	490.42
2001	11	12	12	33868.8	0.48	178.9	0.0	3.05	-4.6	407.48
2001	11	13	12	33868.8	0.0	214.58	0.0	2.41	-7.72	342.21
2001	11	14	12	33605.14	0.0	210.37	0.0	4.65	-5.4	415.49
2001	11	15	12	33523.2	0.0	220.67	0.0	11.27	-1.2	559.78
2001	11	16	12	33444.49	0.13	170.62	0.0	13.42	-0.75	577.01
2001	11	17	12	33177.6	0.03	233.72	0.0	10.88	-4.9	451.63
2001	11	18	12	33177.6	0.06	165.92	0.0	6.95	-4.0	456.97
2001	11	19	12	33030.07	0.02	223.85	0.0	11.46	-2.97	520.01
2001	11	20	12	32832.0	2.2	157.88	0.0	13.02	0.09	597.41
2001	11	21	12	32832.0	0.96	193.42	0.0	9.12	-4.96	444.61
2001	11	22	12	32684.47	0.1	187.35	0.0	5.15	-5.22	413.31
2001	11	23	12	32486.4	0.0	197.27	0.0	7.49	-3.23	483.37
2001	11	24	12	32486.4	0.01	164.08	0.0	8.35	-0.56	609.27
2001	11	25	12	32370.79	0.18	101.27	0.0	11.08	4.68	827.55
2001	11	26	12	32150.68	5.41	77.58	0.0	10.71	6.1	881.49
2001	11	27	12	32140.8	1.86	125.36	0.0	10.04	1.6	699.54
2001	11	28	12	32118.4	0.46	110.26	0.0	6.84	-1.15	551.85
2001	11	29	12	31941.85	10.13	116.61	0.0	2.71	-4.5	439.75
2001	11	30	12	31795.2	7.87	144.06	0.0	5.41	-3.36	491.88
2001	12	1	12	31795.2	1.88	163.86	0.0	14.01	0.54	645.36
2001	12	2	12	31772.8	0.16	178.49	0.0	13.41	0.74	649.92
2001	12	3	12	31647.67	0.01	198.67	0.0	9.02	-2.17	543.77
2001	12	4	12	31459.48	0.77	152.17	0.0	9.31	-1.63	557.44
2001	12	5	12	31449.6	0.22	164.39	0.0	9.26	-0.17	625.4
2001	12	6	12	31449.6	0.01	175.52	0.0	12.41	3.39	758.14
2001	12	7	12	31427.2	0.0	177.93	0.0	13.24	2.91	721.4
2001	12	8	12	31333.99	0.0	200.68	0.0	9.53	-4.73	463.34
2001	12	9	12	31250.65	1.77	140.3	0.0	5.05	-6.13	364.7
2001	12	10	12	31113.88	0.55	187.22	0.0	2.27	-9.95	294.91
2001	12	11	12	31104.0	0.02	222.54	0.0	6.09	-7.34	343.72
2001	12	12	12	31104.0	0.0	215.56	0.0	7.39	-6.5	377.25
2001	12	13	12	31104.0	5.24	153.25	0.0	5.03	-5.13	437.18
2001	12	14	12	31104.0	4.01	107.93	0.0	7.68	0.55	587.46
2001	12	15	12	31104.0	2.16	144.17	0.0	8.47	-4.27	450.38
2001	12	16	12	31081.6	0.39	169.46	0.0	3.29	-9.66	293.37
2001	12	17	12	31025.29	6.51	168.67	0.0	-1.03	-9.99	275.87
2001	12	18	12	30988.39	7.51	147.03	0.0	-0.59	-7.04	327.46
2001	12	19	12	30988.39	1.76	168.32	0.0	0.21	-7.03	333.28
2001	12	20	12	30988.39	5.14	181.23	0.0	1.72	-8.6	317.31
2001	12	21	12	30988.39	2.89	163.89	0.0	0.94	-6.07	349.3
2001	12	22	12	30988.39	0.41	179.58	0.0	-1.67	-8.37	292.22
2001	12	23	12	30988.39	0.0	230.4	0.0	-1.75	-12.36	236.64
2001	12	24	12	31025.29	17.14	195.1	0.0	2.64	-9.05	306.17
2001	12	25	12	31025.29	4.51	227.77	0.0	5.67	-4.21	408.09
2001	12	26	12	31081.6	9.62	192.51	0.0	3.47	-7.17	352.64
2001	12	27	12	31104.0	3.49	176.82	0.0	0.55	-7.41	315.55
2001	12	28	12	31104.0	0.25	236.22	0.0	-2.06	-12.15	233.47
2001	12	29	12	31104.0	0.0	241.68	0.0	-0.93	-11.94	226.61
2001	12	30	12	31104.0	0.0	247.89	0.0	-0.02	-12.1	228.69
2001	12	31	12	31104.0	0.0	243.12	0.0	-0.5	-11.32	227.75
2002	1	1	12	31185.94	0.0	260.97	0.0	-0.45	-15.74	178.72
2002	1	2	12	31302.07	0.0	251.97	0.0	-1.67	-13.93	193.96
2002	1	3	12	31370.89	0.0	252.96	0.0	0.21	-12.31	213.92
2002	1	4	12	31449.6	0.0	262.9	0.0	0.63	-15.0	183.47
2002	1	5	12	31449.6	0.0	249.82	0.0	-3.38	-15.29	190.15
2002	1	6	12	31449.6	4.98	200.22	0.0	2.62	-8.27	315.35
2002	1	7	12	31596.25	4.27	173.55	0.0	3.45	-3.93	394.08
2002	1	8	12	31716.49	1.31	230.38	0.0	0.19	-13.38	233.73
2002	1	9	12	31795.2	3.29	195.51	0.0	-2.14	-11.48	249.1
2002	1	10	12	31795.2	0.97	197.39	0.0	2.37	-6.19	360.29
2002	1	11	12	31805.08	0.14	170.84	0.0	2.52	-4.14	416.2
2002	1	12	12	32025.19	0.2	213.77	0.0	3.68	-5.64	384.43
2002	1	13	12	32140.8	21.82	210.71	0.0	2.69	-7.42	339.69
2002	1	14	12	32140.8	9.51	220.97	0.0	3.23	-8.14	312.32
2002	1	15	12	32287.45	6.05	200.23	0.0	-0.68	-10.46	258.62
2002	1	16	12	32464.0	3.74	228.01	0.0	-0.99	-11.04	230.36
2002	1	17	12	32486.4	3.12	243.3	0.0	-1.95	-18.68	151.3
2002	1	18	12	32496.28	0.93	228.71	0.0	-2.85	-13.9	177.18
2002	1	19	12	32809.6	0.85	246.83	0.0	-1.33	-19.38	137.89
2002	1	20	12	32832.0	0.66	250.33	0.0	-2.16	-15.59	180.47
2002	1	21	12	32841.88	6.47	223.7	0.0	-0.24	-10.0	263.57
2002	1	22	12	33155.2	2.71	241.49	0.0	1.18	-8.64	280.4
2002	1	23	12	33177.6	0.42	255.25	0.0	2.45	-15.06	231.59
2002	1	24	12	33324.25	12.67	229.8	0.0	5.71	-4.74	385.15
2002	1	25	12	33523.2	5.44	254.98	0.0	2.97	-7.84	323.59
2002	1	26	12	33523.2	0.56	301.71	0.0	1.23	-10.56	266.44
2002	1	27	12	33753.19	0.0	311.48	0.0	2.92	-10.18	272.64
2002	1	28	12	33868.8	0.0	276.01	0.0	0.2	-8.64	310.95
2002	1	29	12	33950.74	2.33	195.02	0.0	1.67	-4.77	371.89
2002	1	30	12	34214.4	3.42	251.46	0.0	1.08	-10.47	258.26
2002	1	31	12	34214.4	2.2	213.45	0.0	-4.03	-15.08	174.24
2002	2	1	12	34481.29	13.9	217.75	0.0	-8.04	-14.95	166.31
2002	2	2	12	34560.0	7.73	286.82	0.0	-2.58	-15.69	153.34
2002	2	3	12	34758.07	4.84	287.51	0.0	-6.9	-23.08	110.66
2002	2	4	12	34905.6	5.22	274.63	0.0	-1.67	-13.61	184.53
2002	2	5	12	34987.54	1.52	311.97	0.0	-0.91	-15.47	167.84
2002	2	6	12	35251.2	0.11	352.98	0.0	-5.09	-18.09	141.44
2002	2	7	12	35251.2	0.03	291.43	0.0	-4.26	-15.54	168.65
2002	2	8	12	35596.8	0.01	329.19	0.0	-3.11	-12.98	193.35
2002	2	9	12	35596.8	0.0	375.49	0.0	0.25	-16.12	156.92
2002	2	10	12	35942.4	23.95	315.19	0.0	-1.57	-21.71	119.68
2002	2	11	12	35942.4	13.24	320.55	0.0	6.24	-16.18	156.8
2002	2	12	12	36288.0	1.87	349.34	0.0	0.15	-23.02	108.28
2002	2	13	12	36288.0	0.01	402.3	0.0	1.25	-18.39	129.7
2002	2	14	12	36633.6	0.0	405.39	0.0	-1.5	-21.71	126.84
2002	2	15	12	36633.6	0.0	376.09	0.0	1.21	-11.52	255.02
2002	2	16	12	36979.2	0.0	366.59	0.0	7.13	-4.84	402.09
2002	2	17	12	36979.2	0.19	310.17	0.0	8.48	-5.23	396.63
2002	2	18	12	37324.8	0.32	342.71	0.0	4.23	-9.79	274.49
2002	2	19	12	37324.8	0.07	419.82	0.0	1.33	-17.16	180.43
2002	2	20	12	37670.4	2.66	328.61	0.0	4.81	-11.01	274.49
2002	2	21	12	37670.4	13.93	285.76	0.0	5.2	-4.71	410.97
2002	2	22	12	38016.0	4.86	278.71	0.0	5.43	-3.65	426.72
2002	2	23	12	38016.0	0.36	408.91	0.0	4.77	-9.04	298.95
2002	2	24	12	38361.6	0.0	425.37	0.0	2.73	-13.11	236.64
2002	2	25	12	38361.6	0.0	377.61	0.0	2.52	-7.93	334.83
2002	2	26	12	38707.2	4.61	240.29	0.0	4.18	-2.29	500.5
2002	2	27	12	38707.2	28.28	253.35	0.0	7.87	0.67	582.96
2002	2	28	12	39052.8	8.35	343.59	0.0	7.31	-5.47	400.61
2002	3	1	12	39062.68	0.32	393.7	0.0	1.62	-10.73	270.54
2002	3	2	12	39398.4	3.8	337.5	0.0	3.35	-9.69	300.06
2002	3	3	12	39628.39	14.73	329.53	0.0	6.78	-5.21	408.79
2002	3	4	12	39744.0	3.61	408.82	0.0	8.42	-3.2	429.78
2002	3	5	12	40089.6	0.0	453.85	0.0	2.86	-12.92	237.92
2002	3	6	12	40089.6	0.02	336.64	0.0	-1.92	-12.09	237.27
2002	3	7	12	40435.2	0.01	400.35	0.0	2.16	-8.09	318.53
2002	3	8	12	40435.2	0.12	300.99	0.0	2.91	-5.55	383.38
2002	3	9	12	40780.8	1.24	307.21	0.0	3.97	-5.04	437.76
2002	3	10	12	40780.8	7.77	315.08	0.0	9.39	-0.36	523.42
2002	3	11	12	41126.4	1.96	478.09	0.0	6.09	-10.17	298.5
2002	3	12	12	41126.4	0.29	347.3	0.0	1.58	-9.71	292.69
2002	3	13	12	41472.0	0.63	344.36	0.0	4.36	-6.41	368.97
2002	3	14	12	41817.6	0.15	429.68	0.0	5.97	-4.6	410.55
2002	3	15	12	41817.6	1.74	388.59	0.0	10.33	-6.07	386.06
2002	3	16	12	42163.2	1.06	259.81	0.0	4.35	-6.67	328.74
2002	3	17	12	42163.2	0.16	458.47	0.0	0.3	-10.41	264.07
2002	3	18	12	42508.8	0.0	488.94	0.0	3.53	-9.67	282.47
2002	3	19	12	42508.8	0.01	435.49	0.0	3.23	-7.67	310.91
2002	3	20	12	42854.4	12.16	405.31	0.0	5.42	-10.03	306.93
2002	3	21	12	42854.4	7.83	325.26	0.0	3.66	-4.22	381.29
2002	3	22	12	43200.0	1.89	434.62	0.0	4.72	-11.51	247.24
2002	3	23	12	43545.6	0.18	452.17	0.0	-1.73	-13.59	212.32
2002	3	24	12	43545.6	0.0	472.81	0.0	1.48	-8.64	277.09
2002	3	25	12	43891.2	0.0	522.43	0.0	3.39	-10.65	261.53
2002	3	26	12	43891.2	26.82	414.21	0.0	3.3	-9.49	295.03
2002	3	27	12	44236.8	27.99	415.02	0.0	6.51	-6.43	387.07
2002	3	28	12	44236.8	5.51	455.23	0.0	7.0	-1.75	485.9
2002	3	29	12	44582.4	0.0	501.72	0.0	6.67	-4.33	454.88
2002	3	30	12	44582.4	12.06	401.22	0.0	10.11	-1.27	538.17
2002	3	31	12	44928.0	9.9	387.65	0.0	8.06	-2.12	544.25
2002	4	1	12	45273.6	17.88	409.19	0.0	13.26	0.87	640.43
2002	4	2	12	45273.6	9.41	352.57	0.0	8.89	0.21	620.35
2002	4	3	12	45619.2	9.75	390.52	0.0	10.99	0.67	618.8
2002	4	4	12	45619.2	2.87	453.95	0.0	9.82	-2.07	510.23
2002	4	5	12	45964.8	0.17	553.88	0.0	8.47	-5.55	412.88
2002	4	6	12	45964.8	0.0	518.31	0.0	6.71	-4.1	416.74
2002	4	7	12	46310.4	0.0	516.94	0.0	4.13	-6.47	376.53
2002	4	8	12	46310.4	0.38	407.87	0.0	6.42	-4.16	475.75
2002	4	9	12	46656.0	3.42	324.02	0.0	8.77	1.87	674.68
2002	4	10	12	46771.61	1.74	399.58	0.0	12.19	2.93	693.15
2002	4	11	12	47001.6	0.23	576.89	0.0	13.25	-3.26	518.14
2002	4	12	12	47337.32	0.0	555.11	0.0	12.04	-1.49	616.97
2002	4	13	12	47347.2	20.86	356.44	0.0	14.04	5.8	881.83
2002	4	14	12	47692.8	12.39	395.37	0.0	16.17	5.85	861.01
2002	4	15	12	47692.8	13.61	380.79	0.0	11.2	1.11	669.34
2002	4	16	12	48038.4	3.63	363.73	0.0	9.24	1.11	688.47
2002	4	17	12	48038.4	8.03	439.8	0.0	18.68	3.93	798.32
2002	4	18	12	48384.0	2.92	438.31	0.0	15.98	1.86	709.98
2002	4	19	12	48384.0	0.38	294.96	0.0	11.09	1.16	653.52
2002	4	20	12	48729.6	0.04	460.37	0.0	9.84	1.87	629.72
2002	4	21	12	48729.6	0.0	586.96	0.0	11.6	-3.51	464.57
2002	4	22	12	49075.2	0.0	565.55	0.0	6.76	-5.53	411.52
2002	4	23	12	49075.2	0.06	449.6	0.0	7.76	-2.9	486.43
2002	4	24	12	49420.8	0.02	541.99	0.0	9.57	-1.36	521.02
2002	4	25	12	49420.8	8.26	462.32	0.0	12.01	-3.63	491.56
2002	4	26	12	49766.4	9.59	451.84	0.0	12.08	-1.9	528.83
2002	4	27	12	49766.4	1.95	512.52	0.0	7.72	-1.84	501.13
2002	4	28	12	50112.0	7.16	452.72	0.0	9.71	-3.86	474.98
2002	4	29	12	50112.0	9.3	366.92	0.0	6.29	-1.58	519.53
2002	4	30	12	50457.6	3.89	326.23	0.0	4.88	-1.62	522.4
2002	5	1	12	50457.6	2.48	427.73	0.0	9.27	-1.65	536.56
2002	5	2	12	50803.2	6.92	444.96	0.0	10.87	-1.69	563.13
2002	5	3	12	50803.2	4.65	380.37	0.0	9.41	0.98	640.54
2002	5	4	12	51148.8	0.86	443.57	0.0	11.09	1.43	652.41
2002	5	5	12	51148.8	0.02	603.82	0.0	16.83	-0.23	637.73
2002	5	6	12	51412.46	0.0	595.23	0.0	18.37	1.94	762.37
2002	5	7	12	51494.4	0.07	515.85	0.0	19.16	7.06	934.93
2002	5	8	12	51641.93	0.02	558.1	0.0	17.24	4.87	820.62
2002	5	9	12	51840.0	6.25	455.71	0.0	16.56	1.42	743.05
2002	5	10	12	51862.4	3.12	429.96	0.0	17.08	5.13	861.88
2002	5	11	12	52185.6	0.39	587.0	0.0	20.7	4.61	806.34
2002	5	12	12	52185.6	0.0	583.68	0.0	14.23	0.34	650.53
2002	5	13	12	52449.26	10.33	413.72	0.0	12.97	2.17	695.98
2002	5	14	12	52531.2	16.42	409.33	0.0	12.33	1.87	687.38
2002	5	15	12	52646.81	4.35	335.67	0.0	9.11	1.81	673.32
2002	5	16	12	52876.8	1.45	398.6	0.0	11.11	1.3	713.12
2002	5	17	12	52876.8	0.81	410.1	0.0	16.57	5.71	855.78
2002	5	18	12	53075.75	8.07	454.21	0.0	17.85	2.35	732.85
2002	5	19	12	53222.4	3.18	373.76	0.0	12.35	1.18	632.45
2002	5	20	12	53244.8	0.29	599.31	0.0	14.43	-1.24	585.62
2002	5	21	12	53558.12	0.05	516.08	0.0	14.49	0.93	653.54
2002	5	22	12	53568.0	0.02	552.89	0.0	17.3	1.05	684.29
2002	5	23	12	53590.4	0.0	603.46	0.0	21.17	2.1	756.07
2002	5	24	12	53903.73	0.03	568.03	0.0	23.38	4.52	837.12
2002	5	25	12	53913.6	0.01	600.6	0.0	22.39	2.75	759.55
2002	5	26	12	53936.0	0.0	588.27	0.0	17.62	1.87	718.65
2002	5	27	12	54112.55	0.0	509.37	0.0	14.65	3.66	786.55
2002	5	28	12	54259.2	0.0	587.28	0.0	22.63	5.01	872.26
2002	5	29	12	54259.2	0.0	587.87	0.0	23.37	5.12	929.86
2002	5	30	12	54374.81	1.42	367.95	0.0	19.04	8.93	1120.98
2002	5	31	12	54594.93	0.91	287.9	0.0	17.6	10.75	1225.77
2002	6	1	12	54604.8	0.85	404.31	0.0	23.73	10.32	1199.4
2002	6	2	12	54604.8	1.77	421.21	0.0	23.6	8.01	1000.28
2002	6	3	12	54683.51	0.42	570.14	0.0	18.36	2.44	721.08
2002	6	4	12	54803.75	0.24	434.03	0.0	16.6	0.95	727.46
2002	6	5	12	54950.4	7.43	381.77	0.0	17.37	6.07	936.85
2002	6	6	12	54950.4	7.53	273.71	0.0	14.94	8.34	1021.39
2002	6	7	12	54950.4	1.47	475.88	0.0	17.33	7.16	903.58
2002	6	8	12	55029.11	0.0	574.57	0.0	18.55	2.12	800.92
2002	6	9	12	55097.93	1.65	400.86	0.0	21.03	7.93	1052.07
2002	6	10	12	55214.06	1.19	403.41	0.0	22.51	8.88	1115.26
2002	6	11	12	55296.0	7.69	400.95	0.0	21.94	8.55	1060.21
2002	6	12	12	55296.0	10.99	238.9	0.0	16.13	6.51	897.55
2002	6	13	12	55296.0	2.83	349.33	0.0	12.86	3.6	807.65
2002	6	14	12	55296.0	0.12	535.49	0.0	19.34	5.85	904.98
2002	6	15	12	55296.0	9.72	360.51	0.0	17.15	6.8	945.97
2002	6	16	12	55318.4	5.36	311.14	0.0	13.84	5.92	900.63
2002	6	17	12	55374.71	2.97	302.98	0.0	13.29	5.78	915.04
2002	6	18	12	55374.71	2.84	337.87	0.0	16.43	7.33	1012.18
2002	6	19	12	55411.61	3.07	401.93	0.0	21.76	8.24	1064.75
2002	6	20	12	55411.61	0.65	554.52	0.0	23.46	7.44	1055.58
2002	6	21	12	55411.61	0.0	543.7	0.0	26.03	9.58	1215.79
2002	6	22	12	55411.61	0.0	514.77	0.0	26.3	12.41	1312.46
2002	6	23	12	55411.61	3.16	407.03	0.0	23.81	8.54	1162.77
2002	6	24	12	55411.61	0.83	516.84	0.0	24.0	10.69	1186.63
2002	6	25	12	55374.71	0.0	554.25	0.0	25.44	8.07	1128.65
2002	6	26	12	55318.4	6.21	399.83	0.0	26.52	11.27	1359.48
2002	6	27	12	55296.0	2.66	379.6	0.0	27.57	13.76	1546.56
2002	6	28	12	55296.0	4.49	379.67	0.0	28.65	14.48	1566.1
2002	6	29	12	55296.0	1.11	513.82	0.0	27.49	13.08	1384.28
2002	6	30	12	55296.0	0.0	533.38	0.0	27.17	10.83	1280.57
2002	7	1	12	55296.0	15.05	382.09	0.0	26.31	12.31	1365.58
2002	7	2	12	55286.12	8.58	358.14	0.0	23.49	11.97	1417.65
2002	7	3	12	55149.35	3.84	378.28	0.0	29.73	15.0	1695.7
2002	7	4	12	55066.01	9.91	384.83	0.0	34.6	16.41	1828.98
2002	7	5	12	54972.8	2.84	371.81	0.0	30.2	15.51	1633.45
2002	7	6	12	54950.4	0.82	386.62	0.0	26.12	11.01	1332.32
2002	7	7	12	54950.4	4.09	302.56	0.0	21.32	12.22	1357.24
2002	7	8	12	54940.52	1.51	362.02	0.0	24.66	12.16	1439.82
2002	7	9	12	54752.33	0.59	351.19	0.0	27.19	14.98	1592.4
2002	7	10	12	54627.19	0.21	422.31	0.0	27.87	13.18	1360.49
2002	7	11	12	54604.8	0.11	449.75	0.0	22.85	6.41	994.81
2002	7	12	12	54604.8	0.02	512.62	0.0	21.92	7.97	1069.82
2002	7	13	12	54458.15	0.0	512.08	0.0	26.46	11.35	1258.51
2002	7	14	12	54281.6	0.1	402.96	0.0	27.77	11.2	1348.24
2002	7	15	12	54259.2	5.35	356.61	0.0	26.66	13.78	1465.93
2002	7	16	12	54249.32	3.71	288.43	0.0	22.09	12.8	1366.08
2002	7	17	12	54029.21	1.08	394.48	0.0	23.22	11.09	1275.38
2002	7	18	12	53913.6	0.13	433.43	0.0	24.91	12.81	1313.57
2002	7	19	12	53913.6	4.86	389.6	0.0	25.76	9.43	1204.29
2002	7	20	12	53715.53	1.33	351.95	0.0	21.88	11.88	1236.31
2002	7	21	12	53568.0	0.02	490.6	0.0	21.58	8.69	1130.91
2002	7	22	12	53568.0	0.0	447.11	0.0	24.68	13.47	1417.99
2002	7	23	12	53369.93	2.18	334.89	0.0	26.15	14.53	1457.8
2002	7	24	12	53222.4	0.73	452.32	0.0	29.09	7.65	1052.05
2002	7	25	12	53222.4	0.04	539.49	0.0	23.31	5.27	905.66
2002	7	26	12	52955.51	0.24	386.17	0.0	22.85	8.12	1038.98
2002	7	27	12	52876.8	0.43	361.0	0.0	21.21	8.51	1094.37
2002	7	28	12	52794.86	0.56	301.51	0.0	19.95	10.82	1259.72
2002	7	29	12	52531.2	6.44	325.14	0.0	24.59	13.82	1458.36
2002	7	30	12	52531.2	3.44	331.43	0.0	24.89	13.74	1481.76
2002	7	31	12	52301.21	0.47	462.96	0.0	27.31	14.78	1493.88
2002	8	1	12	52185.6	0.0	504.82	0.0	30.57	13.62	1402.7
2002	8	2	12	52103.66	0.0	478.4	0.0	25.29	12.13	1321.81
2002	8	3	12	51840.0	0.0	432.17	0.0	25.31	14.55	1440.63
2002	8	4	12	51840.0	0.0	478.32	0.0	26.97	13.36	1425.57
2002	8	5	12	51494.4	0.0	456.45	0.0	27.98	15.55	1551.99
2002	8	6	12	51494.4	5.36	356.8	0.0	28.04	13.94	1458.63
2002	8	7	12	51227.51	2.2	356.17	0.0	23.77	10.8	1220.52
2002	8	8	12	51148.8	0.21	494.55	0.0	24.07	9.6	1099.11
2002	8	9	12	50918.81	0.0	506.56	0.0	25.65	9.46	1117.52
2002	8	10	12	50803.2	0.0	495.52	0.0	26.71	11.17	1229.77
2002	8	11	12	50605.13	0.0	488.33	0.0	27.83	12.41	1344.2
2002	8	12	12	50457.6	0.0	485.55	0.0	30.43	14.2	1438.75
2002	8	13	12	50310.95	0.0	498.39	0.0	31.48	13.12	1392.78
2002	8	14	12	50112.0	0.0	493.71	0.0	32.83	14.12	1498.87
2002	8	15	12	50030.06	0.0	467.28	0.0	32.32	16.53	1661.0
2002	8	16	12	49766.4	0.03	418.01	0.0	30.59	16.58	1667.36
2002	8	17	12	49684.46	0.01	442.9	0.0	29.32	16.08	1535.16
2002	8	18	12	49420.8	0.0	498.36	0.0	33.13	12.23	1372.68
2002	8	19	12	49338.86	0.0	467.75	0.0	31.98	15.5	1558.09
2002	8	20	12	49075.2	0.71	336.32	0.0	29.88	15.46	1489.6
2002	8	21	12	48993.26	0.19	496.03	0.0	25.8	7.89	1072.0
2002	8	22	12	48729.6	1.2	348.01	0.0	26.63	11.42	1234.57
2002	8	23	12	48582.95	0.45	360.61	0.0	22.89	10.72	1136.24
2002	8	24	12	48384.0	1.66	359.78	0.0	22.49	6.74	985.65
2002	8	25	12	48185.93	12.59	317.89	0.0	20.87	9.07	1089.8
2002	8	26	12	48038.4	3.2	437.63	0.0	23.66	10.76	1177.88
2002	8	27	12	47715.19	0.0	444.14	0.0	25.29	11.54	1176.94
2002	8	28	12	47692.8	0.0	477.02	0.0	24.48	7.46	1014.58
2002	8	29	12	47347.2	5.21	332.81	0.0	23.0	9.09	1123.33
2002	8	30	12	47347.2	3.26	338.01	0.0	23.52	10.56	1139.45
2002	8	31	12	47001.6	0.5	481.17	0.0	24.04	5.68	877.38
2002	9	1	12	47001.6	0.0	480.92	0.0	21.51	3.29	792.14
2002	9	2	12	46656.0	0.0	445.73	0.0	21.48	7.04	973.69
2002	9	3	12	46656.0	5.59	276.67	0.0	20.86	10.57	1228.71
2002	9	4	12	46310.4	2.63	203.59	0.0	19.9	12.97	1368.13
2002	9	5	12	46310.4	0.31	329.38	0.0	20.47	11.74	1208.59
2002	9	6	12	45964.8	0.0	451.15	0.0	22.86	6.79	966.9
2002	9	7	12	45734.81	0.0	451.83	0.0	24.75	7.71	1030.12
2002	9	8	12	45619.2	0.0	443.03	0.0	28.25	10.52	1226.63
2002	9	9	12	45273.6	0.0	427.39	0.0	29.61	12.97	1403.38
2002	9	10	12	45273.6	0.0	434.62	0.0	33.77	13.48	1460.75
2002	9	11	12	44928.0	12.94	326.61	0.0	32.35	12.03	1320.91
2002	9	12	12	44928.0	4.57	336.64	0.0	22.95	5.65	915.27
2002	9	13	12	44582.4	0.52	321.8	0.0	19.06	3.89	829.13
2002	9	14	12	44582.4	0.11	325.48	0.0	22.23	5.85	942.21
2002	9	15	12	44236.8	12.0	264.46	0.0	19.83	9.24	1108.7
2002	9	16	12	44090.15	19.84	225.63	0.0	18.77	10.34	1160.55
2002	9	17	12	43891.2	4.39	290.64	0.0	16.58	8.64	1040.12
2002	9	18	12	43545.6	0.0	394.85	0.0	20.24	7.01	955.54
2002	9	19	12	43545.6	0.0	404.74	0.0	21.25	6.53	959.57
2002	9	20	12	43200.0	0.0	394.94	0.0	22.99	8.56	1132.92
2002	9	21	12	43200.0	0.0	311.0	0.0	23.34	13.88	1440.38
2002	9	22	12	42854.4	0.16	263.33	0.0	24.88	12.9	1458.29
2002	9	23	12	42854.4	14.0	230.93	0.0	23.06	13.5	1433.88
2002	9	24	12	42508.8	3.81	271.08	0.0	20.1	10.16	1170.0
2002	9	25	12	42361.27	0.04	376.98	0.0	19.32	6.08	929.83
2002	9	26	12	42163.2	0.0	391.21	0.0	21.21	5.72	923.72
2002	9	27	12	41817.6	20.72	245.92	0.0	17.94	7.59	1011.34
2002	9	28	12	41817.6	10.24	253.28	0.0	17.44	7.53	962.76
2002	9	29	12	41472.0	1.26	399.5	0.0	19.28	1.52	730.65
2002	9	30	12	41472.0	0.13	280.68	0.0	16.06	2.04	796.32
2002	10	1	12	41126.4	0.03	293.03	0.0	18.75	9.59	1149.75
2002	10	2	12	41126.4	2.44	254.47	0.0	24.91	11.82	1303.89
2002	10	3	12	40780.8	2.65	281.32	0.0	25.66	7.02	989.63
2002	10	4	12	40665.19	0.66	278.95	0.0	16.18	-1.26	683.75
2002	10	5	12	40435.2	4.24	248.89	0.0	19.06	6.74	923.75
2002	10	6	12	40089.6	1.11	371.37	0.0	22.4	3.96	802.82
2002	10	7	12	40089.6	0.0	363.38	0.0	15.92	0.06	639.24
2002	10	8	12	39744.0	0.0	360.23	0.0	16.14	0.43	615.86
2002	10	9	12	39744.0	0.29	274.14	0.0	12.58	-2.67	544.22
2002	10	10	12	39398.4	0.08	306.2	0.0	11.5	0.92	645.04
2002	10	11	12	39398.4	0.0	269.49	0.0	12.17	3.4	746.47
2002	10	12	12	39052.8	0.0	316.54	0.0	15.53	3.45	766.27
2002	10	13	12	39052.8	7.99	235.66	0.0	14.82	2.63	754.13
2002	10	14	12	38707.2	4.05	235.11	0.0	13.89	3.22	720.23
2002	10	15	12	38684.81	0.51	336.65	0.0	11.29	-3.59	495.59
2002	10	16	12	38361.6	15.06	248.77	0.0	10.93	-3.68	494.98
2002	10	17	12	38245.99	10.45	246.21	0.0	12.51	-0.29	595.6
2002	10	18	12	38016.0	4.09	243.19	0.0	13.87	-1.5	563.89
2002	10	19	12	37817.05	5.67	238.18	0.0	10.52	-3.68	525.67
2002	10	20	12	37670.4	1.91	191.45	0.0	10.88	2.37	654.61
2002	10	21	12	37406.74	0.15	304.82	0.0	8.16	-4.89	447.12
2002	10	22	12	37324.8	0.0	294.07	0.0	7.2	-5.08	412.01
2002	10	23	12	37061.14	0.0	289.52	0.0	7.05	-5.1	429.09
2002	10	24	12	36979.2	0.0	231.68	0.0	6.73	-1.71	517.74
2002	10	25	12	36715.54	0.0	226.47	0.0	6.59	-1.64	525.23
2002	10	26	12	36633.6	11.9	210.75	0.0	9.42	-3.11	518.86
2002	10	27	12	36369.94	7.57	177.43	0.0	8.62	0.28	596.45
2002	10	28	12	36288.0	1.17	254.88	0.0	8.13	-2.4	512.22
2002	10	29	12	36089.05	0.0	274.61	0.0	8.49	-4.1	450.91
2002	10	30	12	35942.4	0.0	260.32	0.0	6.26	-4.98	411.78
2002	10	31	12	35794.87	0.0	274.88	0.0	6.8	-6.58	384.55
2002	11	1	12	35596.8	1.24	205.94	0.0	7.25	-4.72	413.19
2002	11	2	12	35481.19	0.5	248.92	0.0	5.61	-7.81	333.66
2002	11	3	12	35251.2	0.05	285.76	0.0	0.87	-10.18	273.34
2002	11	4	12	35228.81	5.28	232.52	0.0	2.57	-9.75	284.28
2002	11	5	12	34905.6	4.48	212.76	0.0	1.34	-8.25	333.32
2002	11	6	12	34905.6	28.51	185.02	0.0	4.31	-3.22	446.88
2002	11	7	12	34560.0	12.82	198.95	0.0	3.92	-4.64	400.89
2002	11	8	12	34560.0	1.46	305.69	0.0	4.45	-11.17	287.72
2002	11	9	12	34296.34	0.0	297.59	0.0	7.56	-7.07	396.65
2002	11	10	12	34214.4	1.21	223.36	0.0	13.65	-0.38	647.79
2002	11	11	12	34098.79	3.08	192.95	0.0	16.23	4.73	858.21
2002	11	12	12	33868.8	8.9	183.22	0.0	16.02	3.41	812.69
2002	11	13	12	33868.8	21.43	125.77	0.0	11.63	2.14	709.7
2002	11	14	12	33605.14	8.39	148.23	0.0	7.5	-0.39	589.3
2002	11	15	12	33523.2	0.93	190.26	0.0	8.58	-4.55	459.63
2002	11	16	12	33444.49	3.27	202.93	0.0	11.38	-5.84	416.4
2002	11	17	12	33177.6	30.01	148.55	0.0	5.94	-5.83	395.27
2002	11	18	12	33177.6	11.23	123.03	0.0	1.59	-3.46	429.48
2002	11	19	12	33030.07	1.27	191.01	0.0	1.47	-7.55	361.45
2002	11	20	12	32832.0	0.1	177.8	0.0	3.04	-4.22	437.73
2002	11	21	12	32832.0	0.85	184.47	0.0	8.05	-3.28	486.69
2002	11	22	12	32684.47	15.14	171.08	0.0	5.79	-3.44	496.92
2002	11	23	12	32486.4	5.37	143.61	0.0	6.56	-0.21	569.22
2002	11	24	12	32486.4	0.38	231.25	0.0	6.62	-4.63	451.12
2002	11	25	12	32370.79	0.0	225.71	0.0	4.97	-5.54	408.37
2002	11	26	12	32150.68	0.0	216.73	0.0	4.42	-5.22	402.02
2002	11	27	12	32140.8	0.03	200.31	0.0	3.3	-7.33	337.67
2002	11	28	12	32118.4	0.01	237.58	0.0	-1.11	-12.16	232.41
2002	11	29	12	31941.85	2.47	203.78	0.0	-2.45	-14.99	205.24
2002	11	30	12	31795.2	2.35	185.39	0.0	1.68	-7.75	326.21
2002	12	1	12	31795.2	0.49	226.98	0.0	5.38	-5.67	375.58
2002	12	2	12	31772.8	1.33	204.5	0.0	3.04	-11.31	267.01
2002	12	3	12	31647.67	1.03	196.83	0.0	-0.76	-12.44	218.93
2002	12	4	12	31459.48	0.18	234.82	0.0	-5.13	-16.06	164.91
2002	12	5	12	31449.6	0.0	236.82	0.0	-5.87	-16.31	159.42
2002	12	6	12	31449.6	0.0	233.45	0.0	-4.08	-14.45	181.11
2002	12	7	12	31427.2	0.0	252.61	0.0	-0.13	-15.11	196.63
2002	12	8	12	31333.99	0.0	247.13	0.0	4.22	-9.82	256.06
2002	12	9	12	31250.65	0.0	258.61	0.0	3.2	-20.51	140.58
2002	12	10	12	31113.88	0.0	244.72	0.0	-2.8	-17.88	149.97
2002	12	11	12	31104.0	0.25	197.71	0.0	1.88	-12.31	231.85
2002	12	12	12	31104.0	5.16	193.15	0.0	3.46	-9.11	294.34
2002	12	13	12	31104.0	11.8	196.61	0.0	2.65	-9.81	289.2
2002	12	14	12	31104.0	41.87	217.81	0.0	5.67	-9.96	315.77
2002	12	15	12	31104.0	15.61	183.56	0.0	4.51	-3.07	448.5
2002	12	16	12	31081.6	1.41	211.52	0.0	2.08	-5.85	376.28
2002	12	17	12	31025.29	0.0	239.08	0.0	-1.25	-10.98	260.94
2002	12	18	12	30988.39	0.0	245.12	0.0	-1.49	-12.02	229.72
2002	12	19	12	30988.39	0.0	266.41	0.0	2.48	-13.36	231.45
2002	12	20	12	30988.39	30.84	226.82	0.0	6.64	-8.63	346.16
2002	12	21	12	30988.39	8.17	249.27	0.0	10.81	-2.02	520.82
2002	12	22	12	30988.39	0.01	229.89	0.0	6.81	-3.2	487.61
2002	12	23	12	30988.39	0.11	187.11	0.0	4.13	-3.63	455.9
2002	12	24	12	31025.29	2.44	200.54	0.0	3.42	-5.57	385.04
2002	12	25	12	31025.29	12.61	216.5	0.0	-0.4	-11.14	267.53
2002	12	26	12	31081.6	4.39	208.31	0.0	-1.71	-10.22	258.08
2002	12	27	12	31104.0	0.33	259.45	0.0	-1.55	-12.14	217.04
2002	12	28	12	31104.0	0.0	288.36	0.0	-2.1	-20.06	137.99
2002	12	29	12	31104.0	0.0	281.33	0.0	-0.47	-15.22	176.51
2002	12	30	12	31104.0	0.0	281.69	0.0	0.58	-14.06	193.24
2002	12	31	12	31104.0	0.25	232.52	0.0	-3.84	-15.83	181.32
