  40.98
 383.00
 114169652
Year	Mnth	Day	Hr	dayl(s)	prcp(mm/day)	srad(W/m2)	swe(mm)	tmax(C)	tmin(C)	vp(Pa)
2000	1	1	12	32832.0	0.48	224.65	0.0	7.39	-7.63	356.45
2000	1	2	12	32832.0	0.77	224.57	0.0	7.5	-6.94	396.03
2000	1	3	12	32832.0	6.45	195.57	0.0	12.28	-0.45	649.88
2000	1	4	12	32832.0	3.18	132.94	0.0	15.46	8.27	955.96
2000	1	5	12	32832.0	0.4	252.66	0.0	14.23	-2.91	551.57
2000	1	6	12	33177.6	0.16	203.87	0.0	7.83	-8.16	339.35
2000	1	7	12	33177.6	0.05	255.42	0.0	4.64	-7.35	345.07
2000	1	8	12	33177.6	0.0	227.84	0.0	4.45	-5.1	392.21
2000	1	9	12	33177.6	1.02	189.98	0.0	3.83	-5.76	404.1
2000	1	10	12	33177.6	5.82	175.3	0.0	7.9	-2.25	513.77
2000	1	11	12	33499.54	1.55	181.68	0.0	7.59	-0.3	579.96
2000	1	12	12	33523.2	0.84	164.77	0.0	7.5	-1.11	554.92
2000	1	13	12	33523.2	0.92	156.89	0.0	5.2	-2.55	461.76
2000	1	14	12	33523.2	0.19	265.23	0.0	-0.16	-13.62	227.78
2000	1	15	12	33599.62	0.0	235.71	0.0	-4.25	-13.69	193.42
2000	1	16	12	33868.8	0.0	258.2	0.0	-1.19	-12.7	203.13
2000	1	17	12	33868.8	0.0	284.07	0.0	6.31	-16.6	166.13
2000	1	18	12	33868.8	0.01	221.78	0.0	-0.44	-17.31	141.22
2000	1	19	12	34190.73	2.08	221.23	0.0	-7.19	-16.68	156.19
2000	1	20	12	34214.4	3.52	231.68	0.0	-0.88	-11.61	211.58
2000	1	21	12	34214.4	1.15	253.52	0.0	-2.33	-16.91	154.5
2000	1	22	12	34214.4	0.52	228.54	0.0	-7.07	-18.91	122.87
2000	1	23	12	34560.0	0.11	321.24	0.0	-5.88	-18.85	136.6
2000	1	24	12	34560.0	0.0	234.64	0.0	-4.47	-10.85	223.6
2000	1	25	12	34560.0	2.53	248.35	0.0	0.52	-11.07	245.73
2000	1	26	12	34905.6	0.67	164.91	0.0	-2.26	-9.3	248.35
2000	1	27	12	34905.6	0.01	298.48	0.0	-2.65	-15.9	170.36
2000	1	28	12	34905.6	0.0	279.61	0.0	-5.69	-15.76	152.56
2000	1	29	12	35251.2	0.0	342.86	0.0	-3.59	-17.73	138.7
2000	1	30	12	35251.2	6.39	280.46	0.0	0.78	-18.04	157.12
2000	1	31	12	35327.62	1.68	281.27	0.0	-1.31	-9.23	267.9
2000	2	1	12	35596.8	0.57	155.13	0.0	-1.91	-6.26	328.3
2000	2	2	12	35596.8	0.15	276.62	0.0	-1.52	-8.78	277.15
2000	2	3	12	35942.4	2.19	257.4	0.0	-2.46	-12.72	221.52
2000	2	4	12	35942.4	6.1	226.2	0.0	-2.71	-10.05	255.28
2000	2	5	12	35942.4	1.63	272.17	0.0	2.57	-8.59	288.35
2000	2	6	12	36288.0	0.05	325.82	0.0	-0.27	-9.68	274.94
2000	2	7	12	36288.0	0.0	330.39	0.0	2.2	-7.11	297.2
2000	2	8	12	36633.6	0.0	388.33	0.0	2.91	-15.79	182.97
2000	2	9	12	36633.6	0.0	390.67	0.0	0.98	-16.1	170.14
2000	2	10	12	36633.6	1.02	308.47	0.0	7.03	-12.71	242.03
2000	2	11	12	36979.2	0.28	334.65	0.0	8.11	-5.17	360.36
2000	2	12	12	36979.2	0.0	394.04	0.0	5.02	-10.87	265.26
2000	2	13	12	37324.8	15.9	275.24	0.0	1.28	-11.04	245.49
2000	2	14	12	37324.8	8.8	263.36	0.0	-0.3	-8.96	295.82
2000	2	15	12	37646.73	2.35	245.8	0.0	2.73	-4.88	380.19
2000	2	16	12	37670.4	0.3	344.53	0.0	2.68	-6.09	357.74
2000	2	17	12	37670.4	0.55	324.59	0.0	8.36	-7.51	339.96
2000	2	18	12	38016.0	9.11	271.2	0.0	4.25	-7.48	332.74
2000	2	19	12	38016.0	3.52	189.8	0.0	-0.42	-4.95	381.46
2000	2	20	12	38361.6	0.77	196.75	0.0	0.04	-4.65	393.9
2000	2	21	12	38361.6	0.12	292.7	0.0	1.15	-4.8	381.55
2000	2	22	12	38707.2	0.0	418.51	0.0	5.69	-6.93	350.69
2000	2	23	12	38707.2	0.0	439.57	0.0	10.09	-6.13	401.86
2000	2	24	12	39052.8	3.73	331.76	0.0	13.46	-0.82	555.72
2000	2	25	12	39052.8	1.1	339.54	0.0	15.65	-0.52	594.72
2000	2	26	12	39052.8	0.03	423.67	0.0	15.12	1.81	654.37
2000	2	27	12	39398.4	13.61	178.53	0.0	11.99	3.05	686.13
2000	2	28	12	39398.4	3.58	436.35	0.0	14.12	0.1	570.38
2000	2	29	12	39744.0	3.63	395.03	0.0	9.92	-4.85	497.04
2000	3	1	12	39744.0	3.68	357.5	0.0	12.2	-5.09	423.66
2000	3	2	12	40089.6	0.97	320.14	0.0	8.44	-2.38	469.62
2000	3	3	12	40089.6	0.01	345.35	0.0	5.18	-3.34	425.25
2000	3	4	12	40435.2	0.0	457.7	0.0	8.6	-5.85	373.79
2000	3	5	12	40435.2	0.0	475.25	0.0	12.59	-5.36	392.41
2000	3	6	12	40780.8	0.0	473.52	0.0	13.78	-3.92	428.97
2000	3	7	12	40780.8	0.0	478.78	0.0	14.12	-3.9	445.22
2000	3	8	12	41126.4	0.0	484.85	0.0	22.45	-2.89	559.13
2000	3	9	12	41126.4	0.86	363.5	0.0	25.82	5.18	852.87
2000	3	10	12	41472.0	0.23	469.39	0.0	23.49	5.02	797.47
2000	3	11	12	41472.0	12.59	251.97	0.0	17.35	-0.21	594.93
2000	3	12	12	41817.6	3.41	194.7	0.0	5.29	0.53	553.43
2000	3	13	12	41817.6	0.03	415.35	0.0	3.11	-6.46	359.68
2000	3	14	12	42163.2	0.0	483.79	0.0	8.58	-6.0	358.26
2000	3	15	12	42163.2	0.0	491.53	0.0	12.9	-2.93	451.07
2000	3	16	12	42508.8	14.39	385.29	0.0	19.56	-1.04	533.66
2000	3	17	12	42508.8	3.79	503.88	0.0	14.97	-3.05	431.48
2000	3	18	12	42854.4	0.0	436.35	0.0	8.53	-9.85	270.63
2000	3	19	12	42854.4	0.0	496.09	0.0	5.4	-9.02	296.31
2000	3	20	12	43200.0	0.99	311.42	0.0	5.94	-3.2	454.84
2000	3	21	12	43200.0	16.5	288.91	0.0	9.61	1.45	617.72
2000	3	22	12	43200.0	4.27	182.93	0.0	7.61	1.91	650.57
2000	3	23	12	43545.6	0.0	405.12	0.0	11.4	2.17	643.03
2000	3	24	12	43545.6	0.2	380.31	0.0	14.39	-0.11	599.79
2000	3	25	12	43891.2	1.44	396.79	0.0	19.03	0.08	628.6
2000	3	26	12	43891.2	0.37	521.96	0.0	22.38	2.42	655.05
2000	3	27	12	44236.8	1.63	401.68	0.0	15.73	-3.27	502.38
2000	3	28	12	44236.8	1.54	385.62	0.0	13.27	-1.35	538.79
2000	3	29	12	44582.4	0.51	346.12	0.0	11.6	0.46	600.65
2000	3	30	12	44582.4	0.06	231.41	0.0	8.59	1.32	579.57
2000	3	31	12	44928.0	0.0	495.82	0.0	10.15	-5.15	405.87
2000	4	1	12	44928.0	0.0	518.65	0.0	15.11	-4.38	440.68
2000	4	2	12	45273.6	3.51	386.89	0.0	19.59	-1.46	607.83
2000	4	3	12	45273.6	21.27	258.76	0.0	15.61	5.94	899.3
2000	4	4	12	45619.2	5.79	315.08	0.0	20.74	9.64	1005.23
2000	4	5	12	45619.2	0.17	370.27	0.0	14.13	-1.92	563.8
2000	4	6	12	45964.8	0.29	329.91	0.0	8.93	-1.78	533.62
2000	4	7	12	45964.8	0.72	394.81	0.0	20.0	0.17	626.66
2000	4	8	12	46310.4	13.61	326.42	0.0	14.54	1.26	606.0
2000	4	9	12	46310.4	4.0	402.7	0.0	14.55	-4.24	464.87
2000	4	10	12	46656.0	0.12	460.98	0.0	9.58	-2.51	478.94
2000	4	11	12	46656.0	0.53	353.62	0.0	10.81	-0.83	550.68
2000	4	12	12	47001.6	0.14	406.32	0.0	9.22	0.31	537.18
2000	4	13	12	47001.6	0.0	507.03	0.0	7.87	-5.32	397.69
2000	4	14	12	47347.2	0.0	525.87	0.0	11.4	-3.76	457.18
2000	4	15	12	47347.2	0.0	539.79	0.0	19.03	0.73	654.64
2000	4	16	12	47347.2	7.4	400.91	0.0	24.65	5.25	870.1
2000	4	17	12	47692.8	16.07	402.58	0.0	24.96	4.71	846.43
2000	4	18	12	47692.8	14.42	192.86	0.0	18.51	2.84	725.26
2000	4	19	12	48038.4	2.82	190.88	0.0	6.59	2.84	730.54
2000	4	20	12	48038.4	7.89	351.06	0.0	15.99	4.91	852.41
2000	4	21	12	48384.0	14.68	295.07	0.0	15.78	7.31	953.91
2000	4	22	12	48384.0	12.79	171.26	0.0	13.01	6.26	883.25
2000	4	23	12	48729.6	2.76	248.78	0.0	9.66	3.24	730.07
2000	4	24	12	48729.6	0.07	453.95	0.0	10.35	0.66	628.47
2000	4	25	12	48753.27	0.0	560.2	0.0	19.85	1.14	646.71
2000	4	26	12	49075.2	0.0	557.67	0.0	16.94	-0.27	607.49
2000	4	27	12	49075.2	1.19	399.04	0.0	14.48	0.77	658.74
2000	4	28	12	49420.8	0.31	469.38	0.0	13.75	3.5	720.77
2000	4	29	12	49420.8	0.0	553.8	0.0	18.23	1.74	694.86
2000	4	30	12	49766.4	0.0	552.52	0.0	21.51	2.81	713.13
2000	5	1	12	49766.4	3.16	429.32	0.0	19.77	-0.65	640.93
2000	5	2	12	49766.4	0.83	570.8	0.0	22.77	2.19	699.8
2000	5	3	12	50112.0	0.0	572.34	0.0	21.59	0.79	682.12
2000	5	4	12	50112.0	1.96	428.01	0.0	24.47	2.54	815.06
2000	5	5	12	50457.6	0.52	546.28	0.0	26.31	8.22	1079.86
2000	5	6	12	50457.6	0.0	532.52	0.0	29.29	11.86	1321.76
2000	5	7	12	50457.6	0.14	407.21	0.0	30.19	12.17	1419.0
2000	5	8	12	50803.2	0.04	530.91	0.0	31.46	13.21	1454.33
2000	5	9	12	50803.2	0.0	518.26	0.0	29.47	13.68	1491.26
2000	5	10	12	51072.38	3.22	391.42	0.0	31.41	14.02	1499.29
2000	5	11	12	51148.8	0.93	414.05	0.0	27.82	8.46	1154.53
2000	5	12	12	51148.8	0.19	405.73	0.0	24.63	8.09	1125.92
2000	5	13	12	51494.4	3.71	387.13	0.0	26.62	11.46	1224.89
2000	5	14	12	51494.4	0.96	571.34	0.0	26.81	5.25	865.03
2000	5	15	12	51494.4	0.0	571.72	0.0	20.98	0.97	637.47
2000	5	16	12	51840.0	0.0	575.16	0.0	17.81	-0.58	581.85
2000	5	17	12	51840.0	0.0	578.07	0.0	20.18	0.89	693.25
2000	5	18	12	51840.0	12.46	416.1	0.0	23.67	6.27	984.19
2000	5	19	12	52185.6	6.0	402.17	0.0	27.3	10.21	1149.55
2000	5	20	12	52185.6	4.53	187.55	0.0	20.56	6.87	975.37
2000	5	21	12	52185.6	1.04	208.05	0.0	12.89	8.12	1024.51
2000	5	22	12	52209.27	8.28	279.55	0.0	16.84	8.84	1064.23
2000	5	23	12	52531.2	19.18	257.1	0.0	15.49	8.27	1074.38
2000	5	24	12	52531.2	8.58	275.5	0.0	18.3	10.34	1191.03
2000	5	25	12	52531.2	1.08	500.38	0.0	23.91	10.75	1148.21
2000	5	26	12	52800.38	0.0	541.28	0.0	22.03	6.57	958.72
2000	5	27	12	52876.8	0.82	397.21	0.0	21.64	7.06	981.73
2000	5	28	12	52876.8	0.22	427.46	0.0	17.15	7.46	970.77
2000	5	29	12	52876.8	0.0	369.15	0.0	16.02	8.36	983.25
2000	5	30	12	52900.46	0.0	507.49	0.0	18.66	6.23	910.64
2000	5	31	12	53222.4	2.32	399.54	0.0	21.4	7.04	1019.89
2000	6	1	12	53222.4	0.61	535.2	0.0	26.23	10.78	1316.75
2000	6	2	12	53222.4	4.6	361.18	0.0	29.5	16.63	1652.76
2000	6	3	12	53222.4	1.21	556.65	0.0	29.46	10.9	1207.19
2000	6	4	12	53222.4	3.43	416.85	0.0	21.56	5.53	976.69
2000	6	5	12	53568.0	14.42	362.24	0.0	21.51	10.11	1160.63
2000	6	6	12	53568.0	4.66	144.6	0.0	17.69	9.92	1114.94
2000	6	7	12	53568.0	0.29	341.0	0.0	13.54	7.15	987.97
2000	6	8	12	53568.0	0.0	539.22	0.0	23.61	9.33	1128.11
2000	6	9	12	53568.0	0.0	528.3	0.0	25.46	11.63	1307.96
2000	6	10	12	53568.0	0.0	537.83	0.0	29.68	13.92	1522.88
2000	6	11	12	53568.0	10.57	395.45	0.0	31.41	15.68	1769.18
2000	6	12	12	53591.66	6.04	375.44	0.0	31.51	17.71	1945.17
2000	6	13	12	53837.18	23.8	246.98	0.0	27.09	18.1	1917.02
2000	6	14	12	53913.6	6.23	241.93	0.0	22.6	16.5	1785.46
2000	6	15	12	53913.6	6.48	206.04	0.0	21.44	16.53	1793.77
2000	6	16	12	53913.6	4.89	302.26	0.0	25.44	17.46	1917.09
2000	6	17	12	53913.6	4.29	350.63	0.0	29.68	18.92	1997.85
2000	6	18	12	53913.6	5.13	327.21	0.0	25.18	16.04	1654.66
2000	6	19	12	53913.6	1.11	448.51	0.0	20.46	11.89	1302.32
2000	6	20	12	53913.6	0.0	524.66	0.0	23.59	11.44	1281.08
2000	6	21	12	53913.6	20.01	412.62	0.0	27.87	12.03	1460.07
2000	6	22	12	53913.6	5.26	488.9	0.0	28.18	16.65	1670.66
2000	6	23	12	53913.6	0.0	532.2	0.0	27.21	13.22	1456.93
2000	6	24	12	53913.6	0.0	529.15	0.0	26.91	13.25	1466.61
2000	6	25	12	53913.6	0.37	398.92	0.0	28.71	14.03	1694.64
2000	6	26	12	53913.6	5.51	325.18	0.0	29.05	19.5	2133.12
2000	6	27	12	53913.6	9.42	286.05	0.0	27.7	19.94	2032.73
2000	6	28	12	53591.66	2.1	507.04	0.0	24.38	12.76	1462.71
2000	6	29	12	53568.0	1.3	373.57	0.0	25.03	13.72	1463.13
2000	6	30	12	53568.0	0.34	523.76	0.0	23.97	11.56	1283.36
2000	7	1	12	53568.0	0.0	548.78	0.0	24.72	10.32	1232.28
2000	7	2	12	53568.0	0.0	546.65	0.0	26.69	11.72	1354.32
2000	7	3	12	53568.0	4.38	399.09	0.0	27.63	13.52	1555.89
2000	7	4	12	53568.0	1.16	287.79	0.0	23.99	16.62	1697.25
2000	7	5	12	53568.0	0.0	524.79	0.0	27.83	14.34	1502.15
2000	7	6	12	53491.57	0.01	485.01	0.0	27.8	11.43	1321.57
2000	7	7	12	53222.4	0.0	539.06	0.0	24.92	11.05	1200.26
2000	7	8	12	53222.4	0.0	561.88	0.0	23.42	7.86	1057.43
2000	7	9	12	53222.4	4.55	414.24	0.0	24.54	9.32	1192.63
2000	7	10	12	53222.4	1.2	534.08	0.0	26.69	12.45	1395.8
2000	7	11	12	53222.4	0.0	505.84	0.0	27.74	15.16	1493.09
2000	7	12	12	52876.8	0.0	560.02	0.0	26.48	9.83	1216.29
2000	7	13	12	52876.8	0.09	477.26	0.0	26.15	11.06	1309.57
2000	7	14	12	52876.8	1.69	368.05	0.0	24.79	13.26	1507.77
2000	7	15	12	52876.8	11.44	360.94	0.0	27.49	15.7	1683.02
2000	7	16	12	52531.2	9.23	308.45	0.0	23.54	14.99	1618.17
2000	7	17	12	52531.2	1.67	452.5	0.0	25.08	15.04	1587.39
2000	7	18	12	52531.2	0.0	443.91	0.0	25.46	15.61	1576.98
2000	7	19	12	52531.2	0.72	391.75	0.0	26.79	12.52	1421.78
2000	7	20	12	52185.6	0.19	339.38	0.0	22.24	12.99	1358.27
2000	7	21	12	52185.6	2.25	393.9	0.0	25.07	11.26	1287.37
2000	7	22	12	52185.6	0.59	519.93	0.0	25.15	11.75	1232.59
2000	7	23	12	51840.0	0.0	515.98	0.0	22.52	10.04	1142.66
2000	7	24	12	51840.0	0.0	523.23	0.0	24.01	10.69	1202.64
2000	7	25	12	51840.0	0.0	447.02	0.0	22.2	12.64	1333.8
2000	7	26	12	51494.4	0.0	477.77	0.0	25.0	13.96	1455.62
2000	7	27	12	51494.4	0.0	411.97	0.0	24.01	15.36	1586.03
2000	7	28	12	51494.4	3.05	361.75	0.0	28.01	15.84	1703.37
2000	7	29	12	51148.8	2.53	346.93	0.0	27.32	16.3	1754.29
2000	7	30	12	51148.8	3.96	255.71	0.0	24.95	16.83	1836.05
2000	7	31	12	51148.8	2.15	289.38	0.0	27.17	18.89	2044.86
2000	8	1	12	50803.2	12.08	305.15	0.0	28.81	19.76	2117.97
2000	8	2	12	50803.2	7.97	332.19	0.0	28.51	18.18	1993.23
2000	8	3	12	50803.2	3.61	338.96	0.0	29.04	18.06	1942.06
2000	8	4	12	50457.6	0.68	311.65	0.0	26.23	16.59	1701.78
2000	8	5	12	50457.6	4.26	391.43	0.0	24.24	10.4	1289.54
2000	8	6	12	50112.0	23.22	390.84	0.0	24.95	11.05	1303.93
2000	8	7	12	50112.0	20.52	346.8	0.0	22.46	12.22	1500.11
2000	8	8	12	50112.0	3.94	295.81	0.0	27.2	18.91	2042.62
2000	8	9	12	49766.4	1.43	310.4	0.0	28.3	19.12	2095.41
2000	8	10	12	49766.4	0.41	348.6	0.0	28.75	17.64	1945.04
2000	8	11	12	49420.8	6.34	353.75	0.0	27.66	16.22	1751.1
2000	8	12	12	49420.8	3.82	382.51	0.0	26.46	12.64	1485.42
2000	8	13	12	49420.8	0.57	436.54	0.0	23.53	13.48	1476.37
2000	8	14	12	49075.2	0.07	333.52	0.0	23.78	14.43	1591.73
2000	8	15	12	49075.2	2.45	352.94	0.0	26.41	14.98	1688.44
2000	8	16	12	48729.6	0.64	463.25	0.0	28.01	16.71	1715.2
2000	8	17	12	48729.6	0.19	377.31	0.0	24.43	11.7	1397.37
2000	8	18	12	48384.0	0.57	273.85	0.0	20.91	12.36	1349.93
2000	8	19	12	48384.0	0.14	370.89	0.0	18.25	11.28	1230.2
2000	8	20	12	48062.06	0.0	509.83	0.0	21.72	8.74	1088.16
2000	8	21	12	48038.4	0.02	456.22	0.0	22.27	7.45	1026.79
2000	8	22	12	48038.4	0.01	524.49	0.0	23.07	7.42	1044.6
2000	8	23	12	47692.8	8.87	387.71	0.0	25.92	9.76	1281.58
2000	8	24	12	47692.8	2.33	397.26	0.0	24.2	15.63	1556.82
2000	8	25	12	47347.2	0.0	500.09	0.0	26.11	11.68	1344.95
2000	8	26	12	47347.2	0.0	497.0	0.0	26.06	11.48	1326.99
2000	8	27	12	47001.6	8.26	368.73	0.0	26.51	12.05	1440.3
2000	8	28	12	47001.6	2.43	285.3	0.0	23.16	14.96	1638.85
2000	8	29	12	46656.0	0.07	383.92	0.0	25.23	16.52	1787.35
2000	8	30	12	46656.0	0.07	246.68	0.0	24.68	17.81	1925.14
2000	8	31	12	46310.4	0.13	271.8	0.0	25.3	17.31	1921.69
2000	9	1	12	46310.4	0.67	274.12	0.0	26.49	18.19	2030.98
2000	9	2	12	45964.8	2.28	259.47	0.0	27.4	19.61	2141.27
2000	9	3	12	45964.8	0.56	425.33	0.0	29.93	18.38	2020.03
2000	9	4	12	45964.8	0.0	410.13	0.0	29.26	18.58	1817.57
2000	9	5	12	45619.2	0.0	507.98	0.0	26.75	6.04	1016.45
2000	9	6	12	45619.2	0.0	496.18	0.0	20.18	4.2	839.36
2000	9	7	12	45273.6	0.0	492.87	0.0	20.88	5.32	894.32
2000	9	8	12	45273.6	0.0	485.03	0.0	22.67	6.82	1023.64
2000	9	9	12	44928.0	0.16	361.42	0.0	26.69	10.04	1308.83
2000	9	10	12	44928.0	3.66	324.86	0.0	27.71	14.57	1663.55
2000	9	11	12	44582.4	1.7	295.93	0.0	28.22	17.29	1941.9
2000	9	12	12	44582.4	14.98	122.31	0.0	25.83	19.53	2046.45
2000	9	13	12	44236.8	3.89	427.19	0.0	28.05	15.06	1599.67
2000	9	14	12	44236.8	3.29	341.88	0.0	23.1	8.48	1170.6
2000	9	15	12	43891.2	1.25	339.07	0.0	23.68	9.12	1132.17
2000	9	16	12	43891.2	1.45	312.03	0.0	19.41	7.22	985.94
2000	9	17	12	43545.6	0.38	375.28	0.0	16.33	4.46	845.38
2000	9	18	12	43545.6	0.01	460.68	0.0	21.3	5.1	902.65
2000	9	19	12	43200.0	0.45	331.07	0.0	22.99	8.3	1099.39
2000	9	20	12	43200.0	1.54	238.91	0.0	19.75	10.51	1220.06
2000	9	21	12	42854.4	0.38	437.15	0.0	27.86	11.54	1234.66
2000	9	22	12	42854.4	0.0	427.42	0.0	21.97	5.14	902.68
2000	9	23	12	42508.8	10.86	324.22	0.0	19.88	5.84	978.23
2000	9	24	12	42508.8	4.08	292.67	0.0	22.92	11.17	1207.01
2000	9	25	12	42163.2	4.32	304.9	0.0	18.44	5.63	941.02
2000	9	26	12	42163.2	5.22	225.64	0.0	14.57	5.92	881.6
2000	9	27	12	41817.6	1.1	350.92	0.0	13.27	4.4	815.27
2000	9	28	12	41817.6	0.0	420.69	0.0	19.33	5.0	807.41
2000	9	29	12	41472.0	0.0	425.4	0.0	14.2	-0.45	614.52
2000	9	30	12	41472.0	0.0	436.96	0.0	17.3	-0.36	623.86
2000	10	1	12	41126.4	0.0	430.82	0.0	19.66	1.97	738.61
2000	10	2	12	41126.4	0.0	406.85	0.0	21.05	5.78	918.58
2000	10	3	12	40780.8	0.0	400.88	0.0	23.58	8.04	1062.52
2000	10	4	12	40780.8	4.61	299.95	0.0	25.29	8.26	1129.77
2000	10	5	12	40435.2	21.55	258.29	0.0	21.24	9.29	1164.8
2000	10	6	12	40435.2	5.35	182.34	0.0	17.63	10.37	1145.21
2000	10	7	12	40435.2	0.4	278.74	0.0	17.33	4.64	858.57
2000	10	8	12	40089.6	0.77	257.1	0.0	12.86	0.08	631.25
2000	10	9	12	40089.6	0.53	264.39	0.0	9.25	-1.48	560.45
2000	10	10	12	39744.0	0.9	217.02	0.0	7.16	-0.56	586.84
2000	10	11	12	39744.0	0.21	344.19	0.0	11.6	0.93	651.5
2000	10	12	12	39398.4	0.0	392.6	0.0	19.27	1.39	707.18
2000	10	13	12	39398.4	0.0	390.01	0.0	21.63	1.72	740.84
2000	10	14	12	39052.8	0.0	387.81	0.0	23.13	2.38	789.6
2000	10	15	12	39052.8	0.0	377.44	0.0	24.4	4.5	912.12
2000	10	16	12	38707.2	0.13	241.03	0.0	20.24	8.35	1101.97
2000	10	17	12	38707.2	27.24	216.96	0.0	19.54	9.77	1192.3
2000	10	18	12	38361.6	8.26	87.07	0.0	17.09	10.09	1144.73
2000	10	19	12	38361.6	0.29	335.78	0.0	17.82	4.91	875.37
2000	10	20	12	38337.94	0.0	362.13	0.0	18.25	0.43	694.56
2000	10	21	12	38016.0	0.0	364.64	0.0	21.7	0.67	715.85
2000	10	22	12	38016.0	0.0	355.71	0.0	23.74	2.74	763.69
2000	10	23	12	37670.4	0.0	358.02	0.0	17.09	-1.9	596.68
2000	10	24	12	37670.4	0.42	260.75	0.0	15.95	-1.41	645.77
2000	10	25	12	37324.8	0.11	163.05	0.0	13.48	6.4	931.07
2000	10	26	12	37324.8	0.0	291.84	0.0	20.37	8.43	1093.46
2000	10	27	12	36979.2	2.01	229.41	0.0	21.2	7.57	1090.69
2000	10	28	12	36979.2	0.53	311.63	0.0	23.09	7.81	1016.45
2000	10	29	12	36979.2	0.0	317.41	0.0	17.02	-3.1	569.74
2000	10	30	12	36633.6	0.0	318.08	0.0	12.46	-2.1	534.45
2000	10	31	12	36633.6	0.0	326.92	0.0	14.65	-2.74	524.31
2000	11	1	12	36288.0	0.0	323.77	0.0	13.63	-3.1	512.44
2000	11	2	12	36288.0	0.0	323.41	0.0	15.78	-2.68	536.34
2000	11	3	12	36288.0	0.26	240.56	0.0	18.1	-2.18	587.16
2000	11	4	12	35942.4	0.07	300.4	0.0	16.49	1.22	689.91
2000	11	5	12	35942.4	0.0	255.95	0.0	13.44	2.61	689.46
2000	11	6	12	35596.8	0.0	306.79	0.0	10.94	-5.2	454.13
2000	11	7	12	35596.8	0.0	304.11	0.0	11.88	-4.83	456.26
2000	11	8	12	35596.8	1.74	212.8	0.0	14.13	-0.39	648.36
2000	11	9	12	35251.2	17.54	188.87	0.0	18.23	6.35	957.8
2000	11	10	12	35251.2	6.89	101.71	0.0	16.11	9.12	1089.94
2000	11	11	12	35251.2	0.63	119.75	0.0	12.59	6.64	942.87
2000	11	12	12	34905.6	0.0	119.19	0.0	9.39	3.59	782.08
2000	11	13	12	34905.6	0.63	90.61	0.0	7.23	2.86	741.58
2000	11	14	12	34905.6	0.17	115.79	0.0	7.75	3.65	734.99
2000	11	15	12	34560.0	0.0	223.17	0.0	7.89	-1.09	557.94
2000	11	16	12	34560.0	0.0	223.07	0.0	4.07	-5.5	409.99
2000	11	17	12	34560.0	0.16	177.42	0.0	5.21	-5.01	431.05
2000	11	18	12	34214.4	0.04	124.2	0.0	3.89	-0.57	526.65
2000	11	19	12	34214.4	0.0	179.71	0.0	2.03	-4.66	419.96
2000	11	20	12	34214.4	0.46	206.14	0.0	2.87	-6.39	368.12
2000	11	21	12	33868.8	0.52	192.28	0.0	1.97	-5.91	363.31
2000	11	22	12	33868.8	0.43	183.22	0.0	-0.45	-7.6	314.46
2000	11	23	12	33868.8	0.09	272.47	0.0	-1.2	-10.73	253.97
2000	11	24	12	33868.8	0.0	278.52	0.0	-0.38	-10.73	256.91
2000	11	25	12	33523.2	14.04	217.34	0.0	1.8	-7.83	318.46
2000	11	26	12	33523.2	8.47	223.25	0.0	4.44	-6.23	410.75
2000	11	27	12	33523.2	1.56	138.74	0.0	6.94	2.45	670.09
2000	11	28	12	33523.2	0.08	112.87	0.0	5.84	3.07	709.39
2000	11	29	12	33177.6	2.62	140.0	0.0	5.3	0.87	639.86
2000	11	30	12	33177.6	0.69	199.45	0.0	6.11	0.65	606.63
2000	12	1	12	33177.6	0.0	169.57	0.0	3.94	-1.5	500.28
2000	12	2	12	33177.6	0.0	286.45	0.0	2.86	-8.4	316.53
2000	12	3	12	33177.6	0.0	291.43	0.0	-0.81	-12.73	221.47
2000	12	4	12	32908.43	0.0	298.62	0.0	0.52	-13.33	208.03
2000	12	5	12	32832.0	0.37	237.28	0.0	2.84	-12.75	232.51
2000	12	6	12	32832.0	0.27	218.06	0.0	1.75	-8.03	296.06
2000	12	7	12	32832.0	2.66	180.59	0.0	-1.74	-10.46	267.27
2000	12	8	12	32832.0	0.8	141.12	0.0	-2.66	-6.54	323.6
2000	12	9	12	32832.0	0.03	258.94	0.0	-0.45	-8.28	293.87
2000	12	10	12	32832.0	0.0	286.5	0.0	-1.03	-12.19	235.6
2000	12	11	12	32832.0	4.78	226.43	0.0	1.25	-10.25	293.8
2000	12	12	12	32808.34	1.26	233.41	0.0	5.06	-1.71	450.79
2000	12	13	12	32486.4	13.96	227.07	0.0	0.63	-10.43	283.74
2000	12	14	12	32486.4	3.9	213.58	0.0	-2.14	-10.73	263.68
2000	12	15	12	32486.4	0.23	203.39	0.0	1.45	-6.24	346.31
2000	12	16	12	32486.4	13.08	194.9	0.0	0.18	-6.4	385.07
2000	12	17	12	32486.4	3.88	229.31	0.0	10.88	-0.82	524.37
2000	12	18	12	32486.4	0.52	241.99	0.0	7.52	-9.69	321.65
2000	12	19	12	32486.4	5.37	174.47	0.0	2.47	-10.14	253.93
2000	12	20	12	32486.4	1.38	255.41	0.0	-4.29	-11.69	224.63
2000	12	21	12	32486.4	0.33	206.76	0.0	-5.1	-12.55	213.23
2000	12	22	12	32486.4	0.8	199.21	0.0	-4.53	-11.35	218.05
2000	12	23	12	32486.4	0.19	291.62	0.0	-5.49	-15.98	165.03
2000	12	24	12	32486.4	0.17	229.59	0.0	-5.92	-15.73	168.56
2000	12	25	12	32486.4	0.05	279.52	0.0	-2.6	-11.72	216.18
2000	12	26	12	32486.4	0.0	197.2	0.0	-5.24	-11.86	217.59
2000	12	27	12	32562.83	0.19	184.5	0.0	-5.26	-10.95	230.71
2000	12	28	12	32808.34	0.05	261.39	0.0	-4.06	-11.77	214.14
2000	12	29	12	32832.0	0.0	285.81	0.0	-6.0	-15.75	165.68
2000	12	30	12	32832.0	0.52	223.19	0.0	-6.44	-15.42	175.5
2000	12	31	12	32832.0	0.14	227.27	0.0	-3.82	-9.75	255.52
2001	1	1	12	32832.0	0.0	183.3	0.0	-3.38	-7.45	295.4
2001	1	2	12	32832.0	0.0	293.19	0.0	-1.04	-11.39	241.68
2001	1	3	12	32832.0	0.0	267.94	0.0	-3.59	-11.35	236.52
2001	1	4	12	32832.0	0.1	197.54	0.0	-2.57	-8.79	277.29
2001	1	5	12	32832.0	2.77	211.01	0.0	-1.47	-8.47	297.67
2001	1	6	12	33177.6	0.72	236.28	0.0	-0.46	-6.28	330.69
2001	1	7	12	33177.6	0.0	277.27	0.0	-0.33	-8.45	308.25
2001	1	8	12	33177.6	0.29	212.83	0.0	1.7	-5.53	348.08
2001	1	9	12	33177.6	0.08	311.06	0.0	0.72	-10.6	260.62
2001	1	10	12	33177.6	0.0	261.9	0.0	-2.61	-10.94	251.73
2001	1	11	12	33499.54	0.0	270.43	0.0	1.55	-5.81	341.18
2001	1	12	12	33523.2	0.0	321.53	0.0	5.75	-8.0	317.83
2001	1	13	12	33523.2	0.0	324.47	0.0	4.13	-9.58	283.58
2001	1	14	12	33523.2	0.64	260.41	0.0	4.79	-9.53	294.44
2001	1	15	12	33599.62	1.02	218.53	0.0	1.67	-6.11	371.34
2001	1	16	12	33868.8	0.22	175.49	0.0	2.61	-0.83	509.82
2001	1	17	12	33868.8	0.0	159.4	0.0	2.46	-0.36	535.28
2001	1	18	12	33868.8	2.93	129.21	0.0	1.2	-1.97	491.35
2001	1	19	12	34190.73	2.86	151.03	0.0	1.73	-1.74	488.95
2001	1	20	12	34214.4	6.83	139.32	0.0	0.7	-2.45	439.57
2001	1	21	12	34214.4	1.65	307.98	0.0	-1.37	-9.74	277.57
2001	1	22	12	34214.4	0.09	245.27	0.0	-2.69	-10.57	234.83
2001	1	23	12	34560.0	0.02	344.39	0.0	-1.41	-14.13	189.05
2001	1	24	12	34560.0	0.0	353.77	0.0	3.09	-14.2	208.73
2001	1	25	12	34560.0	0.0	330.18	0.0	3.92	-6.14	318.14
2001	1	26	12	34905.6	0.35	265.83	0.0	0.28	-10.47	261.64
2001	1	27	12	34905.6	0.37	265.9	0.0	0.32	-9.94	266.74
2001	1	28	12	34905.6	0.07	310.89	0.0	1.21	-6.74	304.45
2001	1	29	12	35251.2	1.8	274.91	0.0	-0.31	-11.45	241.99
2001	1	30	12	35251.2	10.4	282.63	0.0	0.91	-10.75	281.51
2001	1	31	12	35327.62	4.57	208.99	0.0	4.58	-1.01	503.65
2001	2	1	12	35596.8	0.56	184.69	0.0	3.85	-0.01	556.08
2001	2	2	12	35596.8	0.02	218.6	0.0	3.27	-1.51	480.33
2001	2	3	12	35942.4	0.0	362.63	0.0	2.05	-9.18	295.93
2001	2	4	12	35942.4	0.0	322.3	0.0	-0.74	-9.99	265.43
2001	2	5	12	35942.4	1.21	274.05	0.0	2.94	-6.22	360.42
2001	2	6	12	36288.0	1.26	231.16	0.0	4.37	-1.93	484.7
2001	2	7	12	36288.0	0.25	223.33	0.0	3.74	-0.35	520.18
2001	2	8	12	36633.6	1.28	274.96	0.0	4.12	-4.75	416.29
2001	2	9	12	36633.6	1.22	283.85	0.0	6.45	-3.21	454.46
2001	2	10	12	36633.6	0.23	385.87	0.0	13.14	-0.16	510.23
2001	2	11	12	36979.2	0.0	378.44	0.0	8.12	-8.5	305.86
2001	2	12	12	36979.2	0.0	361.07	0.0	-0.8	-9.94	250.77
2001	2	13	12	37324.8	0.0	400.48	0.0	3.34	-9.22	298.73
2001	2	14	12	37324.8	8.06	300.68	0.0	9.39	-1.34	499.99
2001	2	15	12	37646.73	2.22	240.28	0.0	7.09	0.25	561.36
2001	2	16	12	37670.4	2.57	230.48	0.0	4.48	-1.37	501.92
2001	2	17	12	37670.4	0.67	285.05	0.0	2.39	-3.18	408.17
2001	2	18	12	38016.0	0.0	340.21	0.0	-0.85	-9.68	263.83
2001	2	19	12	38016.0	0.0	387.85	0.0	-1.13	-10.62	237.46
2001	2	20	12	38361.6	0.0	431.45	0.0	6.27	-10.27	283.38
2001	2	21	12	38361.6	0.0	422.94	0.0	11.17	-2.91	393.82
2001	2	22	12	38707.2	2.53	325.2	0.0	5.0	-12.64	227.91
2001	2	23	12	38707.2	0.9	247.35	0.0	-3.86	-11.96	215.61
2001	2	24	12	39052.8	2.29	328.9	0.0	1.66	-9.61	258.41
2001	2	25	12	39052.8	2.82	304.92	0.0	0.75	-7.88	325.13
2001	2	26	12	39052.8	0.59	415.24	0.0	10.06	-0.33	471.83
2001	2	27	12	39398.4	0.0	422.83	0.0	6.03	-5.58	359.44
2001	2	28	12	39398.4	0.0	446.11	0.0	6.36	-6.06	327.58
2001	3	1	12	39744.0	0.27	324.48	0.0	2.74	-7.6	300.5
2001	3	2	12	39744.0	0.07	424.33	0.0	2.74	-7.01	329.18
2001	3	3	12	40089.6	0.0	313.38	0.0	4.29	-1.35	454.98
2001	3	4	12	40089.6	26.25	306.12	0.0	5.13	-3.05	432.72
2001	3	5	12	40435.2	7.61	218.88	0.0	2.8	-3.85	383.58
2001	3	6	12	40435.2	1.26	343.57	0.0	-1.01	-11.12	255.6
2001	3	7	12	40780.8	0.28	419.65	0.0	1.0	-7.78	305.4
2001	3	8	12	40780.8	4.15	342.24	0.0	6.41	-3.68	411.88
2001	3	9	12	41126.4	1.68	322.9	0.0	5.19	-3.54	420.75
2001	3	10	12	41126.4	0.15	398.76	0.0	3.51	-4.28	381.11
2001	3	11	12	41472.0	0.1	354.01	0.0	3.52	-7.09	317.49
2001	3	12	12	41472.0	10.33	388.68	0.0	5.1	-10.23	273.13
2001	3	13	12	41817.6	6.57	388.31	0.0	7.79	-7.55	352.96
2001	3	14	12	41817.6	1.02	441.57	0.0	9.62	0.24	503.51
2001	3	15	12	42163.2	1.29	371.27	0.0	7.16	-4.35	421.84
2001	3	16	12	42163.2	5.96	330.02	0.0	5.37	-2.91	439.54
2001	3	17	12	42508.8	3.2	304.21	0.0	4.36	-2.74	430.07
2001	3	18	12	42508.8	0.45	473.71	0.0	5.19	-5.16	358.71
2001	3	19	12	42854.4	0.0	508.36	0.0	7.3	-6.14	334.89
2001	3	20	12	42854.4	0.1	406.07	0.0	10.29	-6.51	356.51
2001	3	21	12	43200.0	24.24	393.07	0.0	10.5	-3.25	444.83
2001	3	22	12	43200.0	6.37	212.84	0.0	7.77	-0.04	544.1
2001	3	23	12	43200.0	0.2	272.34	0.0	5.76	0.05	545.21
2001	3	24	12	43545.6	0.05	520.21	0.0	11.07	-2.42	451.24
2001	3	25	12	43545.6	0.58	400.67	0.0	7.24	-5.45	367.72
2001	3	26	12	43891.2	0.15	451.61	0.0	3.51	-7.14	296.79
2001	3	27	12	43891.2	0.0	482.97	0.0	-0.92	-10.35	241.93
2001	3	28	12	44236.8	0.0	509.09	0.0	1.65	-9.21	274.81
2001	3	29	12	44236.8	11.57	408.66	0.0	8.19	-4.61	401.19
2001	3	30	12	44582.4	3.62	359.16	0.0	7.76	-1.19	507.48
2001	3	31	12	44582.4	0.15	370.74	0.0	5.79	-0.26	543.33
2001	4	1	12	44928.0	0.09	314.08	0.0	7.58	0.7	589.14
2001	4	2	12	44928.0	0.02	406.81	0.0	8.05	1.2	568.75
2001	4	3	12	45273.6	3.14	380.25	0.0	6.93	-2.86	456.07
2001	4	4	12	45273.6	0.83	517.23	0.0	7.67	-3.25	427.6
2001	4	5	12	45619.2	1.46	430.94	0.0	13.76	-3.84	448.14
2001	4	6	12	45619.2	7.01	435.31	0.0	17.13	-3.14	530.34
2001	4	7	12	45964.8	3.92	319.28	0.0	13.52	4.45	763.57
2001	4	8	12	45964.8	0.57	348.39	0.0	11.73	6.01	829.04
2001	4	9	12	46310.4	1.11	404.02	0.0	17.87	4.85	828.48
2001	4	10	12	46310.4	0.32	489.61	0.0	26.39	5.5	875.44
2001	4	11	12	46656.0	2.69	367.18	0.0	20.47	6.06	901.1
2001	4	12	12	46656.0	0.71	185.83	0.0	13.88	8.84	1026.34
2001	4	13	12	47001.6	0.0	515.92	0.0	22.66	8.95	950.44
2001	4	14	12	47001.6	0.0	558.82	0.0	20.17	0.42	651.18
2001	4	15	12	47347.2	17.82	417.86	0.0	20.31	1.58	687.39
2001	4	16	12	47347.2	8.36	396.87	0.0	16.35	3.11	711.14
2001	4	17	12	47347.2	1.37	346.74	0.0	11.83	0.82	604.62
2001	4	18	12	47692.8	0.11	351.82	0.0	6.61	-1.35	487.34
2001	4	19	12	47692.8	0.0	519.4	0.0	6.03	-5.03	397.04
2001	4	20	12	48038.4	7.26	429.27	0.0	12.83	-3.86	466.21
2001	4	21	12	48038.4	2.83	402.17	0.0	12.47	-0.02	632.39
2001	4	22	12	48384.0	0.24	430.84	0.0	15.74	6.94	919.08
2001	4	23	12	48384.0	0.0	525.23	0.0	25.78	10.11	1156.44
2001	4	24	12	48729.6	0.05	400.23	0.0	29.81	11.59	1210.47
2001	4	25	12	48729.6	0.01	557.05	0.0	21.88	2.6	722.61
2001	4	26	12	48753.27	0.0	551.39	0.0	14.82	-0.98	557.38
2001	4	27	12	49075.2	0.0	561.51	0.0	18.98	0.66	628.36
2001	4	28	12	49075.2	0.0	561.22	0.0	22.44	3.19	682.35
2001	4	29	12	49420.8	0.0	567.52	0.0	16.92	-1.9	534.06
2001	4	30	12	49420.8	0.0	570.23	0.0	19.72	-0.19	597.96
2001	5	1	12	49766.4	0.0	568.42	0.0	26.34	2.44	749.42
2001	5	2	12	49766.4	0.0	555.76	0.0	28.85	7.42	977.94
2001	5	3	12	49766.4	0.0	546.05	0.0	29.35	9.85	1123.96
2001	5	4	12	50112.0	0.0	543.54	0.0	31.3	10.83	1207.02
2001	5	5	12	50112.0	0.0	538.87	0.0	30.91	11.78	1179.79
2001	5	6	12	50457.6	0.0	537.79	0.0	25.22	5.73	860.66
2001	5	7	12	50457.6	0.0	537.33	0.0	20.9	5.35	816.39
2001	5	8	12	50457.6	0.68	400.64	0.0	20.56	5.24	857.64
2001	5	9	12	50803.2	0.18	506.45	0.0	21.08	7.57	920.22
2001	5	10	12	50803.2	0.0	546.37	0.0	24.32	7.33	945.81
2001	5	11	12	51072.38	0.44	409.72	0.0	26.29	8.2	1054.86
2001	5	12	12	51148.8	3.52	408.81	0.0	28.36	9.54	1078.57
2001	5	13	12	51148.8	0.9	515.93	0.0	23.19	5.47	805.63
2001	5	14	12	51494.4	2.25	419.22	0.0	18.46	1.22	661.59
2001	5	15	12	51494.4	0.59	532.76	0.0	16.37	2.01	644.02
2001	5	16	12	51494.4	0.0	576.13	0.0	21.55	1.91	677.39
2001	5	17	12	51840.0	0.04	425.85	0.0	22.54	4.47	877.82
2001	5	18	12	51840.0	2.93	92.85	0.0	19.08	10.8	1181.94
2001	5	19	12	51840.0	0.77	394.87	0.0	20.28	11.34	1150.98
2001	5	20	12	52185.6	0.8	411.23	0.0	25.99	8.2	1067.77
2001	5	21	12	52185.6	4.46	346.16	0.0	21.64	10.23	1156.73
2001	5	22	12	52185.6	15.81	106.82	0.0	18.1	10.93	1182.69
2001	5	23	12	52209.27	3.87	485.74	0.0	21.36	9.2	1022.73
2001	5	24	12	52531.2	0.0	536.39	0.0	22.12	6.96	941.2
2001	5	25	12	52531.2	14.21	403.71	0.0	24.14	8.39	1098.74
2001	5	26	12	52531.2	5.52	206.09	0.0	20.19	12.18	1269.16
2001	5	27	12	52800.38	8.97	307.59	0.0	18.79	9.78	1114.35
2001	5	28	12	52876.8	2.24	461.48	0.0	18.91	8.36	1007.8
2001	5	29	12	52876.8	0.26	339.34	0.0	16.61	8.4	985.72
2001	5	30	12	52876.8	0.07	537.81	0.0	20.28	6.2	828.06
2001	5	31	12	52900.46	0.0	571.37	0.0	17.46	1.36	673.87
2001	6	1	12	53222.4	7.59	429.7	0.0	20.59	3.2	806.54
2001	6	2	12	53222.4	8.22	242.38	0.0	16.49	8.16	1047.77
2001	6	3	12	53222.4	2.27	333.06	0.0	20.73	11.28	1202.43
2001	6	4	12	53222.4	0.17	327.6	0.0	17.41	10.66	1119.91
2001	6	5	12	53222.4	0.0	523.61	0.0	20.81	8.49	1024.36
2001	6	6	12	53568.0	2.06	396.59	0.0	23.11	9.92	1150.59
2001	6	7	12	53568.0	0.54	430.58	0.0	20.88	12.16	1194.31
2001	6	8	12	53568.0	0.0	546.65	0.0	23.73	9.46	1029.02
2001	6	9	12	53568.0	0.0	576.07	0.0	24.58	6.86	941.85
2001	6	10	12	53568.0	2.05	425.56	0.0	25.27	8.35	1045.46
2001	6	11	12	53568.0	0.54	559.33	0.0	25.62	9.89	1129.58
2001	6	12	12	53568.0	3.33	397.03	0.0	26.32	12.8	1348.15
2001	6	13	12	53591.66	0.88	539.62	0.0	29.3	14.28	1434.5
2001	6	14	12	53837.18	0.0	527.96	0.0	29.97	15.58	1561.37
2001	6	15	12	53913.6	0.0	505.54	0.0	30.69	17.72	1769.04
2001	6	16	12	53913.6	6.52	305.42	0.0	27.79	19.36	1860.47
2001	6	17	12	53913.6	1.71	522.43	0.0	27.48	14.25	1408.88
2001	6	18	12	53913.6	0.0	545.02	0.0	27.93	12.78	1302.73
2001	6	19	12	53913.6	0.0	541.03	0.0	28.53	13.61	1399.76
2001	6	20	12	53913.6	7.29	401.18	0.0	31.61	15.84	1619.98
2001	6	21	12	53913.6	7.17	372.35	0.0	29.58	16.99	1741.24
2001	6	22	12	53913.6	10.08	259.93	0.0	25.73	17.9	1802.97
2001	6	23	12	53913.6	18.63	271.99	0.0	23.61	16.56	1602.41
2001	6	24	12	53913.6	4.3	406.06	0.0	19.63	11.55	1238.23
2001	6	25	12	53913.6	0.0	514.68	0.0	24.6	12.39	1268.16
2001	6	26	12	53913.6	0.0	528.27	0.0	26.94	13.31	1347.69
2001	6	27	12	53913.6	0.0	538.42	0.0	29.22	13.96	1423.35
2001	6	28	12	53913.6	0.0	530.48	0.0	30.18	15.21	1556.71
2001	6	29	12	53591.66	0.0	483.82	0.0	30.16	18.3	1804.53
2001	6	30	12	53568.0	3.82	364.78	0.0	30.55	18.34	1902.84
2001	7	1	12	53568.0	8.18	337.58	0.0	28.42	18.27	1695.1
2001	7	2	12	53568.0	1.89	572.91	0.0	24.61	7.15	995.87
2001	7	3	12	53568.0	0.98	410.06	0.0	22.02	7.89	1059.44
2001	7	4	12	53568.0	1.08	375.74	0.0	24.31	12.28	1350.84
2001	7	5	12	53568.0	3.53	350.35	0.0	25.81	15.06	1439.93
2001	7	6	12	53568.0	1.2	420.37	0.0	25.0	8.28	1099.95
2001	7	7	12	53491.57	2.05	396.39	0.0	24.15	10.45	1180.28
2001	7	8	12	53222.4	0.52	536.46	0.0	26.84	12.16	1292.85
2001	7	9	12	53222.4	1.28	395.43	0.0	28.79	14.05	1511.93
2001	7	10	12	53222.4	6.11	381.36	0.0	29.58	15.86	1594.75
2001	7	11	12	53222.4	1.52	502.83	0.0	26.27	13.87	1344.27
2001	7	12	12	53222.4	0.0	529.61	0.0	24.01	10.43	1118.77
2001	7	13	12	52876.8	0.0	535.37	0.0	23.27	9.66	1074.62
2001	7	14	12	52876.8	0.0	498.29	0.0	21.95	10.56	1144.7
2001	7	15	12	52876.8	0.84	395.33	0.0	25.62	11.81	1293.39
2001	7	16	12	52876.8	1.11	382.38	0.0	27.1	13.89	1460.66
2001	7	17	12	52531.2	2.16	355.45	0.0	26.81	15.61	1588.21
2001	7	18	12	52531.2	0.51	472.68	0.0	27.79	16.6	1596.4
2001	7	19	12	52531.2	0.0	483.03	0.0	27.8	16.12	1523.43
2001	7	20	12	52531.2	0.0	522.77	0.0	28.31	14.2	1361.41
2001	7	21	12	52185.6	0.0	542.04	0.0	28.45	12.78	1287.41
2001	7	22	12	52185.6	0.0	531.58	0.0	28.97	13.83	1370.9
2001	7	23	12	52185.6	0.0	522.21	0.0	30.38	15.27	1547.42
2001	7	24	12	51840.0	0.0	498.09	0.0	32.9	18.74	1849.22
2001	7	25	12	51840.0	2.4	363.89	0.0	32.75	19.04	1940.78
2001	7	26	12	51840.0	0.68	366.43	0.0	30.1	17.24	1636.23
2001	7	27	12	51494.4	0.01	542.94	0.0	24.5	8.49	1051.26
2001	7	28	12	51494.4	0.0	529.79	0.0	24.95	10.55	1147.41
2001	7	29	12	51494.4	0.09	336.11	0.0	24.15	13.6	1435.3
2001	7	30	12	51148.8	2.48	170.92	0.0	22.28	16.02	1612.43
2001	7	31	12	51148.8	0.65	351.81	0.0	21.69	14.6	1468.89
2001	8	1	12	51148.8	0.0	497.63	0.0	28.01	14.97	1469.78
2001	8	2	12	50803.2	0.0	511.11	0.0	29.68	15.37	1548.45
2001	8	3	12	50803.2	0.42	376.79	0.0	31.37	16.63	1775.81
2001	8	4	12	50803.2	1.46	224.64	0.0	28.6	19.1	1928.8
2001	8	5	12	50457.6	0.36	502.74	0.0	31.18	16.8	1698.98
2001	8	6	12	50457.6	0.0	497.39	0.0	31.63	17.31	1724.29
2001	8	7	12	50112.0	0.0	503.79	0.0	33.15	17.8	1806.38
2001	8	8	12	50112.0	0.0	494.98	0.0	34.66	19.16	1974.56
2001	8	9	12	50112.0	5.51	362.16	0.0	35.53	19.95	2168.0
2001	8	10	12	49766.4	13.83	351.54	0.0	34.41	20.4	2173.61
2001	8	11	12	49766.4	3.26	416.72	0.0	30.95	19.1	1964.23
2001	8	12	12	49420.8	0.0	367.25	0.0	27.07	18.86	1926.65
2001	8	13	12	49420.8	0.0	372.34	0.0	27.06	18.83	1853.92
2001	8	14	12	49420.8	0.0	497.64	0.0	30.04	15.47	1535.81
2001	8	15	12	49075.2	0.0	528.1	0.0	28.68	11.51	1290.81
2001	8	16	12	49075.2	25.03	388.39	0.0	29.32	12.25	1429.28
2001	8	17	12	48729.6	6.95	357.97	0.0	29.33	15.79	1656.09
2001	8	18	12	48729.6	0.1	454.34	0.0	26.28	14.72	1552.2
2001	8	19	12	48384.0	22.47	341.71	0.0	26.62	14.9	1623.36
2001	8	20	12	48384.0	5.93	395.85	0.0	28.05	16.18	1709.34
2001	8	21	12	48062.06	0.29	292.76	0.0	24.59	15.63	1631.25
2001	8	22	12	48038.4	0.16	395.01	0.0	24.95	13.35	1464.85
2001	8	23	12	48038.4	4.97	354.61	0.0	26.58	13.62	1507.53
2001	8	24	12	47692.8	1.3	243.78	0.0	23.23	15.09	1503.46
2001	8	25	12	47692.8	0.0	505.59	0.0	26.68	11.0	1270.69
2001	8	26	12	47347.2	3.71	373.52	0.0	27.05	11.81	1423.36
2001	8	27	12	47347.2	1.14	302.19	0.0	26.86	17.37	1769.37
2001	8	28	12	47001.6	3.69	338.12	0.0	26.99	15.06	1611.53
2001	8	29	12	47001.6	0.96	466.61	0.0	27.24	14.06	1450.05
2001	8	30	12	46656.0	0.0	475.21	0.0	25.4	11.96	1321.1
2001	8	31	12	46656.0	27.22	357.69	0.0	26.73	12.3	1398.26
2001	9	1	12	46310.4	7.16	437.71	0.0	25.84	14.33	1414.68
2001	9	2	12	46310.4	0.0	482.31	0.0	22.26	8.41	1088.98
2001	9	3	12	45964.8	0.41	356.75	0.0	22.25	8.63	1108.69
2001	9	4	12	45964.8	0.11	482.89	0.0	26.2	9.83	1177.67
2001	9	5	12	45964.8	0.0	471.65	0.0	25.56	10.87	1199.54
2001	9	6	12	45619.2	0.0	478.19	0.0	23.31	8.62	1087.51
2001	9	7	12	45619.2	0.0	486.3	0.0	26.02	8.88	1137.21
2001	9	8	12	45273.6	0.0	478.78	0.0	28.41	11.12	1330.88
2001	9	9	12	45273.6	1.28	332.91	0.0	28.58	14.29	1605.04
2001	9	10	12	44928.0	3.78	314.66	0.0	28.21	15.69	1639.66
2001	9	11	12	44928.0	0.91	435.74	0.0	24.05	11.25	1288.65
2001	9	12	12	44582.4	2.02	338.16	0.0	24.01	9.82	1215.88
2001	9	13	12	44582.4	9.73	338.09	0.0	24.95	10.09	1226.44
2001	9	14	12	44236.8	2.42	462.35	0.0	26.27	9.76	1136.89
2001	9	15	12	44236.8	0.0	432.48	0.0	20.7	4.79	861.75
2001	9	16	12	43891.2	0.0	441.95	0.0	17.69	4.81	839.26
2001	9	17	12	43891.2	0.0	458.91	0.0	20.91	5.38	889.53
2001	9	18	12	43545.6	0.0	456.84	0.0	22.5	6.56	988.27
2001	9	19	12	43545.6	1.63	320.56	0.0	23.41	9.53	1184.78
2001	9	20	12	43200.0	12.27	318.37	0.0	25.18	10.89	1284.88
2001	9	21	12	43200.0	3.12	368.51	0.0	21.72	11.15	1255.64
2001	9	22	12	42854.4	0.0	386.27	0.0	22.24	10.94	1233.27
2001	9	23	12	42854.4	0.0	387.24	0.0	22.76	10.99	1237.33
2001	9	24	12	42508.8	40.01	288.24	0.0	22.0	10.41	1241.1
2001	9	25	12	42508.8	11.8	258.39	0.0	20.39	10.78	1209.47
2001	9	26	12	42163.2	0.53	267.51	0.0	16.5	5.39	930.28
2001	9	27	12	42163.2	1.03	231.61	0.0	13.79	5.87	906.49
2001	9	28	12	41817.6	0.64	235.16	0.0	13.64	5.6	903.71
2001	9	29	12	41817.6	0.1	305.89	0.0	14.49	6.63	922.07
2001	9	30	12	41472.0	0.0	375.23	0.0	15.95	5.02	849.97
2001	10	1	12	41472.0	0.0	411.48	0.0	17.57	3.4	795.52
2001	10	2	12	41126.4	0.0	427.44	0.0	21.7	3.75	866.87
2001	10	3	12	41126.4	0.0	394.77	0.0	23.12	8.64	1103.32
2001	10	4	12	40780.8	0.0	399.36	0.0	25.58	9.58	1192.8
2001	10	5	12	40780.8	1.89	297.06	0.0	25.17	8.91	1172.61
2001	10	6	12	40435.2	0.5	393.98	0.0	23.61	8.12	1042.92
2001	10	7	12	40435.2	0.04	274.37	0.0	18.11	2.37	734.26
2001	10	8	12	40435.2	0.01	359.9	0.0	9.68	-1.51	542.28
2001	10	9	12	40089.6	0.0	404.29	0.0	11.4	-3.89	470.44
2001	10	10	12	40089.6	0.0	412.0	0.0	16.23	-3.43	529.32
2001	10	11	12	39744.0	0.0	399.15	0.0	20.64	2.04	733.37
2001	10	12	12	39744.0	0.5	295.2	0.0	23.35	3.07	864.67
2001	10	13	12	39398.4	0.13	318.46	0.0	19.64	8.91	1147.77
2001	10	14	12	39398.4	22.39	243.47	0.0	24.68	12.69	1361.91
2001	10	15	12	39052.8	5.89	342.72	0.0	19.9	6.21	974.65
2001	10	16	12	39052.8	10.03	272.71	0.0	17.24	2.52	789.38
2001	10	17	12	38707.2	2.82	251.07	0.0	14.98	3.26	753.18
2001	10	18	12	38707.2	0.05	313.46	0.0	10.76	-1.3	581.14
2001	10	19	12	38361.6	0.0	366.22	0.0	14.26	-1.18	592.23
2001	10	20	12	38361.6	0.0	370.17	0.0	18.72	-0.17	669.47
2001	10	21	12	38337.94	0.04	268.83	0.0	19.38	2.98	805.74
2001	10	22	12	38016.0	1.61	267.0	0.0	22.86	3.67	885.37
2001	10	23	12	38016.0	14.06	156.47	0.0	18.81	7.22	1005.25
2001	10	24	12	37670.4	4.47	241.86	0.0	21.12	7.22	1099.1
2001	10	25	12	37670.4	0.23	293.3	0.0	22.85	10.89	1238.66
2001	10	26	12	37324.8	0.11	199.63	0.0	18.45	5.89	938.79
2001	10	27	12	37324.8	1.09	113.98	0.0	11.97	1.93	693.67
2001	10	28	12	36979.2	0.28	268.86	0.0	7.38	-1.85	539.24
2001	10	29	12	36979.2	0.0	300.38	0.0	7.71	-3.84	478.98
2001	10	30	12	36979.2	0.01	294.09	0.0	15.53	-2.86	560.36
2001	10	31	12	36633.6	0.5	187.23	0.0	12.76	3.38	745.67
2001	11	1	12	36633.6	0.13	280.92	0.0	11.62	0.61	680.95
2001	11	2	12	36288.0	1.51	237.98	0.0	17.76	1.29	749.39
2001	11	3	12	36288.0	0.4	306.2	0.0	21.89	5.45	896.86
2001	11	4	12	36288.0	0.0	310.06	0.0	17.24	0.64	716.87
2001	11	5	12	35942.4	0.0	309.58	0.0	17.16	0.44	661.39
2001	11	6	12	35942.4	0.0	260.07	0.0	12.78	-1.75	565.71
2001	11	7	12	35596.8	0.0	294.88	0.0	12.92	-1.28	616.17
2001	11	8	12	35596.8	0.0	276.65	0.0	17.23	4.1	819.46
2001	11	9	12	35596.8	0.0	290.74	0.0	19.52	3.28	789.55
2001	11	10	12	35251.2	0.0	265.79	0.0	14.59	-1.76	589.68
2001	11	11	12	35251.2	0.0	293.1	0.0	15.63	-0.82	589.51
2001	11	12	12	35251.2	0.0	254.94	0.0	11.2	-3.48	486.23
2001	11	13	12	34905.6	0.0	286.79	0.0	10.13	-4.77	446.29
2001	11	14	12	34905.6	0.0	288.72	0.0	11.75	-4.7	457.93
2001	11	15	12	34905.6	0.0	290.99	0.0	16.59	-3.73	553.89
2001	11	16	12	34560.0	0.0	252.16	0.0	17.96	5.28	841.43
2001	11	17	12	34560.0	0.0	277.95	0.0	18.56	0.48	687.31
2001	11	18	12	34560.0	0.0	273.56	0.0	12.91	-3.11	530.3
2001	11	19	12	34214.4	1.95	206.44	0.0	13.74	-3.04	541.93
2001	11	20	12	34214.4	0.79	195.97	0.0	15.67	0.52	629.59
2001	11	21	12	34214.4	0.07	218.57	0.0	10.02	-4.1	464.87
2001	11	22	12	33868.8	0.0	250.98	0.0	7.29	-5.31	418.82
2001	11	23	12	33868.8	0.0	262.32	0.0	10.71	-4.48	450.94
2001	11	24	12	33868.8	6.49	198.4	0.0	13.1	-3.94	505.05
2001	11	25	12	33868.8	24.74	191.44	0.0	16.13	-0.24	657.84
2001	11	26	12	33523.2	6.1	198.68	0.0	16.39	3.77	804.65
2001	11	27	12	33523.2	2.08	150.32	0.0	12.39	2.4	756.78
2001	11	28	12	33523.2	7.78	103.56	0.0	9.41	2.87	771.54
2001	11	29	12	33523.2	2.68	95.6	0.0	11.26	5.8	922.02
2001	11	30	12	33177.6	9.02	91.41	0.0	13.79	8.52	1073.89
2001	12	1	12	33177.6	2.32	193.55	0.0	17.5	7.81	1043.05
2001	12	2	12	33177.6	0.0	146.85	0.0	13.85	4.73	834.0
2001	12	3	12	33177.6	0.0	229.91	0.0	10.77	-1.82	585.49
2001	12	4	12	33177.6	0.45	178.4	0.0	12.37	-1.97	574.39
2001	12	5	12	32908.43	0.39	178.95	0.0	15.1	0.09	694.64
2001	12	6	12	32832.0	0.94	170.1	0.0	20.07	5.76	932.48
2001	12	7	12	32832.0	0.23	200.66	0.0	15.81	5.01	855.78
2001	12	8	12	32832.0	7.95	173.63	0.0	11.42	-2.25	580.33
2001	12	9	12	32832.0	2.09	89.52	0.0	7.76	-1.4	522.16
2001	12	10	12	32832.0	0.06	181.85	0.0	6.67	-4.09	460.73
2001	12	11	12	32832.0	0.02	187.11	0.0	4.7	-3.84	453.89
2001	12	12	12	32832.0	2.37	169.88	0.0	8.66	-4.15	461.67
2001	12	13	12	32808.34	1.23	165.64	0.0	8.15	-3.85	527.91
2001	12	14	12	32486.4	5.05	72.95	0.0	9.85	5.88	837.73
2001	12	15	12	32486.4	1.29	200.17	0.0	12.36	2.59	721.89
2001	12	16	12	32486.4	2.18	167.97	0.0	7.32	-5.29	453.74
2001	12	17	12	32486.4	13.88	148.46	0.0	4.41	-4.54	458.27
2001	12	18	12	32486.4	4.32	94.74	0.0	5.83	0.92	623.16
2001	12	19	12	32486.4	0.57	97.7	0.0	6.03	1.04	642.11
2001	12	20	12	32486.4	0.21	153.91	0.0	8.26	-1.07	584.32
2001	12	21	12	32486.4	0.18	48.55	0.0	5.83	-0.25	550.57
2001	12	22	12	32486.4	0.04	198.98	0.0	2.68	-5.72	405.38
2001	12	23	12	32486.4	3.95	157.84	0.0	3.18	-5.75	398.16
2001	12	24	12	32486.4	1.26	149.23	0.0	4.5	-3.43	440.92
2001	12	25	12	32486.4	0.06	201.61	0.0	1.5	-6.34	360.11
2001	12	26	12	32486.4	0.07	165.37	0.0	-1.41	-8.67	295.02
2001	12	27	12	32486.4	0.1	187.38	0.0	-1.78	-9.02	285.71
2001	12	28	12	32562.83	1.67	165.83	0.0	-2.52	-8.25	298.68
2001	12	29	12	32808.34	0.45	210.67	0.0	-0.43	-7.76	307.89
2001	12	30	12	32832.0	0.0	221.44	0.0	-2.51	-8.95	279.96
2001	12	31	12	32832.0	0.0	175.64	0.0	-4.66	-10.04	249.0
2002	1	1	12	32832.0	0.0	258.67	0.0	-3.57	-12.24	220.4
2002	1	2	12	32832.0	0.0	275.31	0.0	-1.47	-11.64	227.08
2002	1	3	12	32832.0	0.0	290.21	0.0	0.44	-12.02	227.17
2002	1	4	12	32832.0	0.0	294.06	0.0	1.16	-11.87	254.98
2002	1	5	12	32832.0	0.0	224.67	0.0	2.04	-4.18	400.07
2002	1	6	12	33177.6	14.03	179.03	0.0	2.86	-3.58	443.38
2002	1	7	12	33177.6	4.32	118.1	0.0	1.47	-3.37	437.49
2002	1	8	12	33177.6	0.16	198.99	0.0	0.1	-6.43	363.59
2002	1	9	12	33177.6	0.0	176.12	0.0	-0.55	-5.91	388.47
2002	1	10	12	33177.6	1.39	182.55	0.0	8.59	-1.32	547.29
2002	1	11	12	33499.54	1.42	180.58	0.0	9.94	-0.07	600.97
2002	1	12	12	33523.2	0.58	151.71	0.0	6.59	-1.78	526.04
2002	1	13	12	33523.2	0.29	172.66	0.0	4.59	-3.52	459.05
2002	1	14	12	33523.2	0.09	178.1	0.0	3.48	-4.69	431.17
2002	1	15	12	33599.62	0.28	158.37	0.0	4.47	-2.2	496.37
2002	1	16	12	33868.8	0.42	117.93	0.0	3.2	-1.17	523.49
2002	1	17	12	33868.8	0.09	208.57	0.0	3.58	-2.73	465.37
2002	1	18	12	33868.8	0.0	241.22	0.0	2.41	-5.53	376.04
2002	1	19	12	34190.73	5.39	221.74	0.0	-0.43	-8.6	296.7
2002	1	20	12	34214.4	1.5	233.79	0.0	-1.23	-10.24	258.48
2002	1	21	12	34214.4	1.47	253.62	0.0	1.13	-11.18	269.53
2002	1	22	12	34214.4	0.38	296.18	0.0	5.04	-3.84	411.57
2002	1	23	12	34560.0	0.84	235.01	0.0	6.13	-3.26	480.14
2002	1	24	12	34560.0	3.03	192.3	0.0	7.01	1.05	587.46
2002	1	25	12	34560.0	0.74	321.97	0.0	7.79	-3.69	460.57
2002	1	26	12	34905.6	0.0	320.62	0.0	6.71	-4.51	417.87
2002	1	27	12	34905.6	0.0	337.58	0.0	11.71	-4.74	434.25
2002	1	28	12	34905.6	0.0	340.42	0.0	16.31	-3.08	509.24
2002	1	29	12	35251.2	4.03	225.86	0.0	15.76	-0.36	636.47
2002	1	30	12	35251.2	5.6	218.42	0.0	17.43	3.61	763.47
2002	1	31	12	35327.62	7.04	190.29	0.0	13.36	-0.08	618.74
2002	2	1	12	35596.8	4.58	189.91	0.0	7.21	-1.02	540.95
2002	2	2	12	35596.8	0.8	320.93	0.0	12.92	-5.86	410.13
2002	2	3	12	35942.4	0.0	254.83	0.0	8.38	-6.64	346.61
2002	2	4	12	35942.4	0.56	270.39	0.0	4.86	-7.74	317.36
2002	2	5	12	35942.4	0.15	340.7	0.0	1.2	-10.9	253.61
2002	2	6	12	36288.0	0.0	343.42	0.0	1.47	-9.71	289.86
2002	2	7	12	36288.0	0.28	185.45	0.0	4.06	-3.21	441.57
2002	2	8	12	36633.6	0.07	320.59	0.0	10.19	-2.94	470.62
2002	2	9	12	36633.6	0.0	335.16	0.0	9.88	-5.1	426.21
2002	2	10	12	36633.6	17.45	242.44	0.0	8.75	-3.56	454.06
2002	2	11	12	36979.2	4.59	312.66	0.0	6.5	-4.41	413.91
2002	2	12	12	36979.2	0.08	236.72	0.0	3.22	-7.57	343.0
2002	2	13	12	37324.8	0.02	320.49	0.0	6.32	-4.76	375.7
2002	2	14	12	37324.8	0.0	324.37	0.0	1.98	-11.21	261.77
2002	2	15	12	37646.73	0.0	354.21	0.0	5.21	-9.45	321.54
2002	2	16	12	37670.4	0.44	241.46	0.0	9.58	-1.52	519.08
2002	2	17	12	37670.4	0.12	285.9	0.0	7.07	-1.46	494.97
2002	2	18	12	38016.0	0.0	335.03	0.0	3.77	-7.83	335.92
2002	2	19	12	38016.0	0.0	368.46	0.0	6.69	-8.1	331.03
2002	2	20	12	38361.6	3.22	296.94	0.0	11.03	-5.91	441.08
2002	2	21	12	38361.6	1.59	264.23	0.0	13.52	2.24	662.2
2002	2	22	12	38707.2	0.2	305.5	0.0	9.79	-0.86	540.03
2002	2	23	12	38707.2	0.0	314.46	0.0	4.71	-5.62	382.01
2002	2	24	12	39052.8	0.0	364.14	0.0	4.92	-7.48	334.58
2002	2	25	12	39052.8	0.0	398.07	0.0	12.38	-6.07	391.45
2002	2	26	12	39052.8	4.22	298.02	0.0	14.59	-3.08	467.89
2002	2	27	12	39398.4	1.51	316.67	0.0	11.7	-5.87	386.73
2002	2	28	12	39398.4	0.1	265.72	0.0	6.76	-7.38	313.6
2002	3	1	12	39744.0	0.0	325.96	0.0	0.21	-7.89	305.71
2002	3	2	12	39744.0	11.2	303.01	0.0	6.03	-5.93	401.52
2002	3	3	12	40089.6	3.11	220.29	0.0	8.16	1.31	555.17
2002	3	4	12	40089.6	0.04	448.29	0.0	10.43	-9.97	294.27
2002	3	5	12	40435.2	0.07	304.17	0.0	4.5	-12.42	220.58
2002	3	6	12	40435.2	0.02	435.62	0.0	2.65	-9.67	286.33
2002	3	7	12	40780.8	0.0	445.89	0.0	15.25	-3.01	452.56
2002	3	8	12	40780.8	0.0	444.27	0.0	14.49	-2.01	509.95
2002	3	9	12	41126.4	3.14	341.41	0.0	19.47	-0.62	564.62
2002	3	10	12	41126.4	0.9	355.41	0.0	18.56	-4.07	455.8
2002	3	11	12	41472.0	0.02	328.48	0.0	12.23	-5.84	359.49
2002	3	12	12	41472.0	0.0	388.99	0.0	4.5	-5.45	398.21
2002	3	13	12	41817.6	0.25	226.15	0.0	7.62	0.93	592.69
2002	3	14	12	41817.6	0.07	305.67	0.0	8.76	1.88	654.56
2002	3	15	12	42163.2	11.64	342.21	0.0	19.81	3.63	794.93
2002	3	16	12	42163.2	3.78	313.43	0.0	22.1	8.14	919.62
2002	3	17	12	42508.8	4.32	325.13	0.0	15.56	-3.12	522.57
2002	3	18	12	42508.8	1.43	148.01	0.0	7.17	-1.41	521.59
2002	3	19	12	42854.4	4.5	147.62	0.0	5.02	0.86	594.06
2002	3	20	12	42854.4	9.42	199.9	0.0	5.62	-0.09	563.67
2002	3	21	12	43200.0	2.57	291.44	0.0	8.42	-1.14	490.63
2002	3	22	12	43200.0	0.1	492.94	0.0	10.44	-8.97	308.67
2002	3	23	12	43200.0	0.0	261.93	0.0	5.77	-7.57	317.21
2002	3	24	12	43545.6	0.98	336.25	0.0	8.25	-3.79	426.93
2002	3	25	12	43545.6	5.28	319.83	0.0	9.18	-1.44	503.54
2002	3	26	12	43891.2	32.05	110.02	0.0	6.49	-1.21	529.54
2002	3	27	12	43891.2	8.1	167.94	0.0	3.9	0.34	555.26
2002	3	28	12	44236.8	0.0	369.32	0.0	3.79	-3.71	449.78
2002	3	29	12	44236.8	0.43	353.71	0.0	10.4	-1.66	549.89
2002	3	30	12	44582.4	0.11	474.88	0.0	17.73	4.21	738.78
2002	3	31	12	44582.4	3.96	352.92	0.0	15.41	2.92	730.9
2002	4	1	12	44928.0	1.07	294.83	0.0	11.85	3.18	699.51
2002	4	2	12	44928.0	0.01	421.92	0.0	9.6	0.42	612.04
2002	4	3	12	45273.6	0.05	385.15	0.0	18.06	1.96	638.61
2002	4	4	12	45273.6	0.01	485.81	0.0	11.73	-3.65	439.4
2002	4	5	12	45619.2	2.23	349.83	0.0	5.88	-4.67	397.89
2002	4	6	12	45619.2	0.91	350.62	0.0	4.89	-5.33	370.63
2002	4	7	12	45964.8	0.08	489.6	0.0	4.65	-6.55	366.59
2002	4	8	12	45964.8	0.48	373.94	0.0	10.64	-1.27	557.33
2002	4	9	12	46310.4	3.01	375.36	0.0	17.29	4.46	765.98
2002	4	10	12	46310.4	0.76	509.77	0.0	17.84	4.42	732.51
2002	4	11	12	46656.0	0.0	533.2	0.0	18.14	0.84	625.12
2002	4	12	12	46656.0	0.0	536.1	0.0	19.32	1.6	703.18
2002	4	13	12	47001.6	8.11	340.97	0.0	18.3	8.09	972.42
2002	4	14	12	47001.6	18.67	325.62	0.0	17.44	8.39	1033.08
2002	4	15	12	47347.2	4.38	437.87	0.0	22.83	9.55	1129.62
2002	4	16	12	47347.2	0.01	493.99	0.0	25.07	11.95	1265.75
2002	4	17	12	47347.2	0.0	518.06	0.0	31.05	12.29	1360.75
2002	4	18	12	47692.8	0.02	447.41	0.0	31.17	13.32	1457.26
2002	4	19	12	47692.8	0.67	381.15	0.0	30.09	13.24	1432.93
2002	4	20	12	48038.4	2.41	393.78	0.0	29.24	10.03	1170.49
2002	4	21	12	48038.4	3.12	370.21	0.0	22.16	4.95	824.36
2002	4	22	12	48384.0	0.96	272.47	0.0	12.33	1.68	641.26
2002	4	23	12	48384.0	0.08	487.9	0.0	9.98	-0.8	527.46
2002	4	24	12	48729.6	0.77	401.15	0.0	11.64	-2.16	565.41
2002	4	25	12	48729.6	4.29	345.0	0.0	15.75	5.67	773.63
2002	4	26	12	48753.27	1.08	532.94	0.0	13.56	-0.2	575.17
2002	4	27	12	49075.2	9.84	414.21	0.0	14.73	-1.34	605.71
2002	4	28	12	49075.2	12.84	337.35	0.0	15.81	6.04	851.11
2002	4	29	12	49420.8	3.27	410.15	0.0	21.56	4.51	814.14
2002	4	30	12	49420.8	1.99	217.72	0.0	17.16	2.08	687.5
2002	5	1	12	49766.4	8.19	401.88	0.0	16.01	1.71	712.13
2002	5	2	12	49766.4	5.55	368.04	0.0	17.21	5.69	837.33
2002	5	3	12	49766.4	0.93	571.5	0.0	25.78	3.18	728.22
2002	5	4	12	50112.0	0.0	536.88	0.0	19.77	-0.81	573.3
2002	5	5	12	50112.0	0.0	568.6	0.0	20.03	1.5	680.01
2002	5	6	12	50457.6	0.93	418.17	0.0	22.77	4.44	923.6
2002	5	7	12	50457.6	0.26	385.5	0.0	23.2	13.03	1291.84
2002	5	8	12	50457.6	18.38	386.7	0.0	23.39	9.54	1151.97
2002	5	9	12	50803.2	9.21	353.9	0.0	20.3	9.08	1082.49
2002	5	10	12	50803.2	1.15	412.05	0.0	17.45	7.83	940.24
2002	5	11	12	51072.38	6.11	420.4	0.0	18.97	2.26	785.27
2002	5	12	12	51148.8	27.04	383.27	0.0	19.54	6.82	958.33
2002	5	13	12	51148.8	25.91	304.38	0.0	17.25	8.83	1039.1
2002	5	14	12	51494.4	11.35	389.75	0.0	18.76	5.7	881.47
2002	5	15	12	51494.4	1.65	426.82	0.0	15.14	2.7	744.93
2002	5	16	12	51494.4	0.66	408.06	0.0	19.13	4.6	894.9
2002	5	17	12	51840.0	17.93	389.45	0.0	22.79	9.15	1037.39
2002	5	18	12	51840.0	7.5	433.62	0.0	19.88	1.17	704.86
2002	5	19	12	51840.0	0.78	389.68	0.0	13.26	-0.17	595.74
2002	5	20	12	52185.6	0.01	526.55	0.0	11.19	-0.79	551.37
2002	5	21	12	52185.6	0.0	547.08	0.0	11.6	-1.54	540.5
2002	5	22	12	52185.6	0.0	553.34	0.0	13.6	-0.22	597.47
2002	5	23	12	52209.27	0.0	582.3	0.0	19.04	0.88	727.75
2002	5	24	12	52531.2	0.77	422.82	0.0	24.85	6.71	998.37
2002	5	25	12	52531.2	0.5	420.23	0.0	24.82	7.19	1042.73
2002	5	26	12	52531.2	0.09	411.1	0.0	19.36	8.27	1070.84
2002	5	27	12	52800.38	0.02	476.18	0.0	24.91	9.32	1224.64
2002	5	28	12	52876.8	9.67	372.54	0.0	26.3	13.38	1522.75
2002	5	29	12	52876.8	2.79	311.72	0.0	24.54	15.39	1677.06
2002	5	30	12	52876.8	8.37	326.75	0.0	25.58	15.57	1691.04
2002	5	31	12	52900.46	6.18	376.0	0.0	27.78	14.48	1610.54
2002	6	1	12	53222.4	1.05	518.68	0.0	28.32	13.74	1508.97
2002	6	2	12	53222.4	0.0	523.7	0.0	28.09	13.42	1398.02
2002	6	3	12	53222.4	0.0	544.59	0.0	23.64	8.69	1125.74
2002	6	4	12	53222.4	13.04	381.91	0.0	21.54	9.33	1299.22
2002	6	5	12	53222.4	18.07	291.48	0.0	25.25	17.06	1819.89
2002	6	6	12	53568.0	33.01	373.39	0.0	29.97	16.38	1708.13
2002	6	7	12	53568.0	7.67	465.29	0.0	23.25	9.61	1202.42
2002	6	8	12	53568.0	0.0	532.73	0.0	23.9	9.93	1215.89
2002	6	9	12	53568.0	0.0	543.55	0.0	26.71	10.92	1347.37
2002	6	10	12	53568.0	0.0	525.04	0.0	28.78	13.97	1596.94
2002	6	11	12	53568.0	0.49	379.36	0.0	29.45	15.67	1808.26
2002	6	12	12	53568.0	3.23	343.17	0.0	28.41	17.31	1908.65
2002	6	13	12	53591.66	6.83	332.33	0.0	26.42	16.24	1781.18
2002	6	14	12	53837.18	29.35	320.14	0.0	24.0	14.66	1605.04
2002	6	15	12	53913.6	10.85	199.23	0.0	20.44	13.23	1440.88
2002	6	16	12	53913.6	1.23	333.72	0.0	20.34	11.12	1287.64
2002	6	17	12	53913.6	0.54	379.99	0.0	21.43	9.57	1197.13
2002	6	18	12	53913.6	0.38	406.9	0.0	23.56	9.03	1187.18
2002	6	19	12	53913.6	0.07	533.33	0.0	24.23	10.29	1267.86
2002	6	20	12	53913.6	0.0	536.16	0.0	27.54	12.38	1438.78
2002	6	21	12	53913.6	0.0	523.08	0.0	28.16	13.82	1578.48
2002	6	22	12	53913.6	0.0	511.44	0.0	29.27	15.45	1737.25
2002	6	23	12	53913.6	0.0	498.58	0.0	30.05	16.89	1922.39
2002	6	24	12	53913.6	2.88	352.12	0.0	30.82	18.99	2137.81
2002	6	25	12	53913.6	0.8	362.74	0.0	30.64	18.55	2111.64
2002	6	26	12	53913.6	0.1	355.53	0.0	30.56	18.99	2154.05
2002	6	27	12	53913.6	8.43	324.92	0.0	29.44	19.49	2116.95
2002	6	28	12	53913.6	2.72	389.29	0.0	26.97	16.7	1808.26
2002	6	29	12	53591.66	0.13	504.88	0.0	27.39	14.83	1640.1
2002	6	30	12	53568.0	0.0	507.63	0.0	28.14	15.26	1690.45
2002	7	1	12	53568.0	0.0	510.03	0.0	30.22	16.49	1852.64
2002	7	2	12	53568.0	0.0	494.61	0.0	31.92	18.62	2076.73
2002	7	3	12	53568.0	0.0	487.94	0.0	33.02	19.72	2179.37
2002	7	4	12	53568.0	0.0	499.42	0.0	33.07	18.91	2031.8
2002	7	5	12	53568.0	0.0	537.71	0.0	32.72	14.92	1649.05
2002	7	6	12	53568.0	0.0	536.3	0.0	26.66	11.81	1379.53
2002	7	7	12	53491.57	0.0	531.47	0.0	26.72	12.17	1401.33
2002	7	8	12	53222.4	0.0	537.16	0.0	28.84	13.15	1551.9
2002	7	9	12	53222.4	6.68	377.99	0.0	29.87	16.2	1830.81
2002	7	10	12	53222.4	1.76	387.58	0.0	25.94	17.77	1737.37
2002	7	11	12	53222.4	0.0	558.62	0.0	24.88	8.24	1144.77
2002	7	12	12	53222.4	0.0	554.52	0.0	24.96	8.6	1135.04
2002	7	13	12	52876.8	0.0	552.2	0.0	26.68	10.11	1288.75
2002	7	14	12	52876.8	0.0	497.1	0.0	26.9	14.35	1548.35
2002	7	15	12	52876.8	0.0	515.33	0.0	29.35	14.67	1625.92
2002	7	16	12	52876.8	0.0	517.96	0.0	30.88	15.3	1703.55
2002	7	17	12	52531.2	0.0	520.02	0.0	32.15	15.95	1841.41
2002	7	18	12	52531.2	1.23	357.75	0.0	31.94	18.63	2101.25
2002	7	19	12	52531.2	6.49	329.26	0.0	29.67	18.74	2070.44
2002	7	20	12	52531.2	1.62	462.5	0.0	29.5	17.66	1895.44
2002	7	21	12	52185.6	0.0	497.38	0.0	29.55	15.93	1822.71
2002	7	22	12	52185.6	0.0	480.39	0.0	32.27	18.78	2122.4
2002	7	23	12	52185.6	8.86	333.93	0.0	32.53	20.59	2211.52
2002	7	24	12	51840.0	2.33	495.98	0.0	28.34	15.06	1693.91
2002	7	25	12	51840.0	0.15	337.42	0.0	25.32	14.71	1646.31
2002	7	26	12	51840.0	9.45	261.57	0.0	22.8	15.33	1713.24
2002	7	27	12	51494.4	6.34	123.21	0.0	21.15	17.26	1921.48
2002	7	28	12	51494.4	2.55	299.51	0.0	28.74	19.47	2223.71
2002	7	29	12	51494.4	1.0	310.3	0.0	31.98	21.57	2437.97
2002	7	30	12	51148.8	0.46	344.01	0.0	32.04	19.68	2242.45
2002	7	31	12	51148.8	1.08	357.76	0.0	31.33	18.08	2063.69
2002	8	1	12	51148.8	0.26	490.52	0.0	32.85	18.19	2054.94
2002	8	2	12	50803.2	1.96	363.5	0.0	33.85	19.03	2167.19
2002	8	3	12	50803.2	0.52	488.92	0.0	33.43	18.54	2054.78
2002	8	4	12	50803.2	0.0	498.01	0.0	32.82	17.32	1936.99
2002	8	5	12	50457.6	8.35	373.68	0.0	31.97	16.68	1839.96
2002	8	6	12	50457.6	2.2	516.87	0.0	28.86	13.2	1470.31
2002	8	7	12	50112.0	0.0	518.47	0.0	24.6	9.99	1208.24
2002	8	8	12	50112.0	0.0	522.72	0.0	24.55	9.79	1185.03
2002	8	9	12	50112.0	0.0	524.76	0.0	26.06	10.27	1233.96
2002	8	10	12	49766.4	0.0	533.54	0.0	28.96	10.97	1325.03
2002	8	11	12	49766.4	0.0	526.13	0.0	31.76	12.95	1527.62
2002	8	12	12	49420.8	5.74	371.72	0.0	32.61	16.69	1839.76
2002	8	13	12	49420.8	2.62	372.56	0.0	32.94	16.43	1856.38
2002	8	14	12	49420.8	0.29	489.95	0.0	33.07	17.2	1898.79
2002	8	15	12	49075.2	5.07	359.42	0.0	34.22	18.47	2092.77
2002	8	16	12	49075.2	1.64	309.61	0.0	30.67	19.66	2174.57
2002	8	17	12	48729.6	0.32	303.95	0.0	30.45	20.09	2173.76
2002	8	18	12	48729.6	0.06	451.57	0.0	31.44	18.65	1982.06
2002	8	19	12	48384.0	0.68	347.03	0.0	30.75	17.35	1897.81
2002	8	20	12	48384.0	0.18	423.96	0.0	28.22	17.42	1740.14
2002	8	21	12	48062.06	0.0	503.28	0.0	27.91	12.36	1449.64
2002	8	22	12	48038.4	5.49	365.88	0.0	31.06	15.1	1721.91
2002	8	23	12	48038.4	9.5	342.31	0.0	31.92	17.87	1962.9
2002	8	24	12	47692.8	8.35	201.17	0.0	27.83	17.9	1895.11
2002	8	25	12	47692.8	1.64	430.81	0.0	26.9	15.55	1640.56
2002	8	26	12	47347.2	0.0	466.55	0.0	27.05	13.59	1496.23
2002	8	27	12	47347.2	0.0	453.98	0.0	27.19	14.25	1527.34
2002	8	28	12	47001.6	0.45	337.92	0.0	26.92	14.07	1528.75
2002	8	29	12	47001.6	0.12	316.65	0.0	22.84	12.91	1381.44
2002	8	30	12	46656.0	0.0	300.49	0.0	18.71	12.21	1324.41
2002	8	31	12	46656.0	0.0	466.53	0.0	25.98	12.18	1360.63
2002	9	1	12	46310.4	1.37	343.5	0.0	26.85	13.29	1482.25
2002	9	2	12	46310.4	0.36	230.78	0.0	23.17	14.22	1498.76
2002	9	3	12	45964.8	0.0	404.11	0.0	24.06	13.93	1462.27
2002	9	4	12	45964.8	0.0	476.34	0.0	29.96	13.58	1406.34
2002	9	5	12	45964.8	0.0	479.34	0.0	26.93	11.19	1197.72
2002	9	6	12	45619.2	0.0	486.13	0.0	26.37	9.92	1116.96
2002	9	7	12	45619.2	0.0	487.78	0.0	28.18	10.0	1133.5
2002	9	8	12	45273.6	0.0	490.74	0.0	30.49	10.23	1169.77
2002	9	9	12	45273.6	0.0	487.24	0.0	32.23	10.4	1197.66
2002	9	10	12	44928.0	0.0	487.77	0.0	33.93	10.24	1237.82
2002	9	11	12	44928.0	0.0	472.57	0.0	33.39	12.72	1283.57
2002	9	12	12	44582.4	0.0	470.06	0.0	25.84	7.49	957.92
2002	9	13	12	44582.4	0.0	477.68	0.0	24.29	7.04	879.2
2002	9	14	12	44236.8	0.0	485.15	0.0	28.24	7.59	1053.59
2002	9	15	12	44236.8	10.93	267.03	0.0	28.24	18.12	1738.77
2002	9	16	12	43891.2	2.88	249.08	0.0	25.49	17.62	1688.15
2002	9	17	12	43891.2	0.0	423.05	0.0	25.46	12.11	1254.9
2002	9	18	12	43545.6	0.0	442.2	0.0	25.99	10.86	1156.81
2002	9	19	12	43545.6	0.26	324.97	0.0	26.53	11.34	1294.6
2002	9	20	12	43200.0	0.48	239.82	0.0	24.38	15.74	1621.24
2002	9	21	12	43200.0	1.2	235.72	0.0	26.33	17.64	1812.87
2002	9	22	12	42854.4	21.96	184.7	0.0	24.1	17.5	1706.31
2002	9	23	12	42854.4	5.7	431.01	0.0	23.99	8.8	1086.88
2002	9	24	12	42508.8	0.0	440.28	0.0	21.51	5.72	884.83
2002	9	25	12	42508.8	0.0	412.11	0.0	21.19	7.25	958.87
2002	9	26	12	42163.2	23.5	290.78	0.0	21.4	9.41	1114.01
2002	9	27	12	42163.2	19.17	170.84	0.0	18.64	10.77	1229.84
2002	9	28	12	41817.6	3.42	289.2	0.0	19.96	12.26	1256.36
2002	9	29	12	41817.6	0.02	357.25	0.0	20.87	6.45	991.07
2002	9	30	12	41472.0	0.01	403.49	0.0	21.62	7.54	1022.12
2002	10	1	12	41472.0	0.0	377.74	0.0	22.88	10.24	1211.1
2002	10	2	12	41126.4	0.0	368.21	0.0	26.4	13.5	1475.86
2002	10	3	12	41126.4	1.52	243.04	0.0	25.85	15.33	1674.63
2002	10	4	12	40780.8	2.49	198.2	0.0	23.62	15.87	1707.37
2002	10	5	12	40780.8	0.55	246.89	0.0	22.04	15.05	1500.68
2002	10	6	12	40435.2	0.0	389.14	0.0	19.22	5.35	954.8
2002	10	7	12	40435.2	0.0	355.55	0.0	18.39	6.93	906.37
2002	10	8	12	40435.2	0.0	392.78	0.0	16.44	1.88	715.51
2002	10	9	12	40089.6	0.0	372.38	0.0	14.54	2.22	727.99
2002	10	10	12	40089.6	9.38	242.63	0.0	15.39	5.83	929.55
2002	10	11	12	39744.0	32.85	139.3	0.0	14.86	10.15	1184.69
2002	10	12	12	39744.0	11.23	74.05	0.0	14.35	11.84	1316.88
2002	10	13	12	39398.4	2.95	100.14	0.0	15.07	11.89	1229.29
2002	10	14	12	39398.4	0.55	377.99	0.0	14.34	0.92	716.65
2002	10	15	12	39052.8	5.94	274.5	0.0	12.01	-0.01	637.38
2002	10	16	12	39052.8	15.59	246.52	0.0	11.15	1.42	695.52
2002	10	17	12	38707.2	5.73	196.1	0.0	10.75	3.95	764.36
2002	10	18	12	38707.2	0.55	291.42	0.0	10.61	0.68	660.63
2002	10	19	12	38361.6	3.05	258.19	0.0	11.6	0.64	654.6
2002	10	20	12	38361.6	0.8	349.4	0.0	13.07	0.98	658.18
2002	10	21	12	38337.94	0.0	342.68	0.0	11.98	0.16	617.44
2002	10	22	12	38016.0	0.0	349.11	0.0	10.88	-1.73	554.93
2002	10	23	12	38016.0	0.0	351.34	0.0	12.5	-1.32	559.95
2002	10	24	12	37670.4	0.73	244.77	0.0	8.77	-2.01	544.26
2002	10	25	12	37670.4	17.14	142.12	0.0	6.42	-0.13	599.27
2002	10	26	12	37324.8	5.32	152.63	0.0	7.09	1.88	701.83
2002	10	27	12	37324.8	0.26	224.29	0.0	12.19	4.71	813.32
2002	10	28	12	36979.2	0.01	264.6	0.0	10.62	2.93	723.01
2002	10	29	12	36979.2	8.78	224.44	0.0	7.77	-2.25	537.06
2002	10	30	12	36979.2	8.79	148.15	0.0	4.92	-2.73	482.54
2002	10	31	12	36633.6	1.71	152.13	0.0	1.41	-2.64	481.68
2002	11	1	12	36633.6	3.01	196.86	0.0	5.66	-1.8	524.78
2002	11	2	12	36288.0	0.79	256.08	0.0	5.97	-1.22	539.55
2002	11	3	12	36288.0	0.0	257.71	0.0	5.28	-2.1	512.54
2002	11	4	12	36288.0	0.09	200.6	0.0	5.56	-2.52	507.5
2002	11	5	12	35942.4	7.36	179.77	0.0	5.28	-1.42	551.33
2002	11	6	12	35942.4	2.33	142.0	0.0	5.94	0.97	637.5
2002	11	7	12	35596.8	0.11	204.85	0.0	7.16	1.72	648.61
2002	11	8	12	35596.8	0.0	292.18	0.0	7.68	-2.8	537.54
2002	11	9	12	35596.8	0.0	304.93	0.0	15.57	-0.05	670.79
2002	11	10	12	35251.2	6.96	208.45	0.0	16.59	5.77	971.99
2002	11	11	12	35251.2	1.97	157.05	0.0	18.55	11.96	1268.62
2002	11	12	12	35251.2	5.83	209.21	0.0	17.03	4.69	931.15
2002	11	13	12	34905.6	1.52	144.37	0.0	14.02	4.04	779.93
2002	11	14	12	34905.6	0.0	236.8	0.0	7.78	0.05	642.31
2002	11	15	12	34905.6	4.11	212.91	0.0	14.62	0.47	673.93
2002	11	16	12	34560.0	15.06	198.68	0.0	12.55	1.95	712.63
2002	11	17	12	34560.0	8.22	82.8	0.0	9.37	1.42	655.18
2002	11	18	12	34560.0	1.2	190.99	0.0	5.03	-0.72	573.37
2002	11	19	12	34214.4	0.66	148.55	0.0	4.07	-1.83	532.87
2002	11	20	12	34214.4	0.17	213.85	0.0	5.56	-1.26	551.35
2002	11	21	12	34214.4	0.78	195.83	0.0	9.6	-1.22	585.05
2002	11	22	12	33868.8	2.49	154.93	0.0	7.55	0.95	633.29
2002	11	23	12	33868.8	0.6	217.34	0.0	5.86	-1.08	566.46
2002	11	24	12	33868.8	0.0	222.28	0.0	5.98	-1.47	540.6
2002	11	25	12	33868.8	0.0	250.55	0.0	7.69	-2.41	513.91
2002	11	26	12	33523.2	6.93	183.12	0.0	6.1	-3.23	478.09
2002	11	27	12	33523.2	1.82	214.6	0.0	3.08	-4.52	411.47
2002	11	28	12	33523.2	0.0	245.34	0.0	0.53	-8.92	315.38
2002	11	29	12	33523.2	0.0	198.63	0.0	-0.43	-6.84	358.75
2002	11	30	12	33177.6	0.8	182.74	0.0	7.24	-3.03	464.26
2002	12	1	12	33177.6	0.21	257.15	0.0	6.75	-6.31	391.76
2002	12	2	12	33177.6	0.7	172.07	0.0	2.95	-6.55	334.58
2002	12	3	12	33177.6	0.18	301.45	0.0	1.36	-13.76	214.66
2002	12	4	12	33177.6	2.7	220.1	0.0	-3.22	-14.66	190.52
2002	12	5	12	32908.43	8.01	188.1	0.0	-4.33	-10.93	240.05
2002	12	6	12	32832.0	1.92	225.98	0.0	-2.77	-9.02	267.19
2002	12	7	12	32832.0	0.0	291.31	0.0	-1.61	-13.64	211.81
2002	12	8	12	32832.0	0.0	295.71	0.0	2.56	-12.86	214.25
2002	12	9	12	32832.0	0.0	300.73	0.0	2.3	-15.32	185.71
2002	12	10	12	32832.0	0.0	286.68	0.0	-2.61	-14.91	184.11
2002	12	11	12	32832.0	14.19	232.37	0.0	-0.07	-12.91	231.89
2002	12	12	12	32832.0	3.77	217.93	0.0	1.2	-6.26	374.26
2002	12	13	12	32808.34	12.65	102.44	0.0	1.65	-0.68	535.35
2002	12	14	12	32486.4	5.14	112.81	0.0	2.37	-0.43	571.2
2002	12	15	12	32486.4	0.51	134.09	0.0	3.28	0.07	589.78
2002	12	16	12	32486.4	0.67	119.98	0.0	2.91	-0.21	538.91
2002	12	17	12	32486.4	0.17	285.75	0.0	0.58	-11.05	283.02
2002	12	18	12	32486.4	0.0	274.74	0.0	-1.29	-11.33	250.86
2002	12	19	12	32486.4	7.68	219.25	0.0	1.32	-8.76	317.56
2002	12	20	12	32486.4	4.21	227.09	0.0	8.31	-4.46	445.58
2002	12	21	12	32486.4	0.63	251.6	0.0	9.32	-2.49	516.93
2002	12	22	12	32486.4	0.28	178.16	0.0	6.08	-2.02	517.59
2002	12	23	12	32486.4	0.07	216.29	0.0	3.89	-2.3	500.97
2002	12	24	12	32486.4	5.85	142.91	0.0	2.04	-2.65	480.03
2002	12	25	12	32486.4	12.43	109.3	0.0	0.32	-3.05	455.15
2002	12	26	12	32486.4	2.87	155.26	0.0	-0.46	-3.93	416.36
2002	12	27	12	32486.4	0.0	232.38	0.0	-0.57	-7.23	335.45
2002	12	28	12	32562.83	0.22	212.99	0.0	-0.29	-9.44	291.51
2002	12	29	12	32808.34	0.06	277.08	0.0	1.95	-8.46	312.1
2002	12	30	12	32832.0	0.58	215.91	0.0	2.77	-6.96	347.22
2002	12	31	12	32832.0	18.92	229.17	0.0	3.45	-7.19	383.69
