  40.98
 383.00
 114169652
Year Mnth Day Hr dayl(s) prcp(mm/day) srad(W/m2) swe(mm) tmax(C) tmin(C) vp(Pa)
2000 01 01 12	32832.00	0.00	254.92	0.00	6.30	-6.65	360.00
2000 01 02 12	32832.00	0.05	272.06	0.00	9.64	-5.60	400.00
2000 01 03 12	32832.00	1.00	237.58	0.00	14.17	2.30	720.56
2000 01 04 12	32832.00	7.43	110.54	0.00	14.43	7.90	1072.15
2000 01 05 12	32832.00	3.07	205.55	0.00	12.89	-3.47	474.30
2000 01 06 12	33177.61	0.00	194.48	0.00	0.29	-7.85	338.48
2000 01 07 12	33177.61	0.00	225.24	0.00	4.17	-5.87	400.00
2000 01 08 12	33177.61	0.00	216.25	0.00	3.77	-5.51	408.60
2000 01 09 12	33177.61	0.00	214.54	0.00	4.10	-5.04	428.63
2000 01 10 12	33177.61	3.52	156.20	0.00	8.03	-0.98	567.06
2000 01 11 12	33499.53	8.23	118.41	0.00	7.36	0.90	640.00
2000 01 12 12	33523.20	0.00	196.24	0.00	6.41	-1.68	540.38
2000 01 13 12	33523.20	1.01	186.99	0.00	3.73	-3.76	463.71
2000 01 14 12	33523.20	0.96	270.04	0.00	-1.37	-13.77	213.47
2000 01 15 12	33599.64	0.00	209.46	0.00	-5.58	-13.79	213.16
2000 01 16 12	33868.81	0.00	285.04	0.00	1.54	-12.13	240.00
2000 01 17 12	33868.81	0.00	321.61	0.00	5.00	-16.67	165.76
2000 01 18 12	33868.81	0.00	219.55	0.00	-8.99	-17.41	154.65
2000 01 19 12	34190.73	0.00	256.77	0.00	-5.50	-16.01	179.57
2000 01 20 12	34214.39	3.01	139.48	0.00	-2.29	-9.29	298.68
2000 01 21 12	34214.39	3.86	207.81	0.00	-3.91	-15.74	180.67
2000 01 22 12	34214.39	1.33	230.54	0.00	-9.74	-18.29	150.56
2000 01 23 12	34560.01	1.00	256.68	0.00	-7.14	-17.02	160.00
2000 01 24 12	34560.01	0.00	199.75	0.00	-2.99	-10.04	280.00
2000 01 25 12	34560.01	0.00	249.60	0.00	-1.48	-10.81	271.06
2000 01 26 12	34905.61	3.96	100.62	0.00	-5.30	-9.75	289.67
2000 01 27 12	34905.61	0.00	295.95	0.00	-4.22	-15.89	182.24
2000 01 28 12	34905.61	0.00	227.74	0.00	-8.12	-15.90	182.24
2000 01 29 12	35251.20	0.00	330.12	0.00	-3.26	-17.50	160.00
2000 01 30 12	35251.20	0.00	348.51	0.00	-0.48	-17.02	160.00
2000 01 31 12	35327.63	8.00	147.64	0.00	-2.01	-8.40	320.00
2000 02 01 12	35596.80	0.00	153.03	0.00	-2.61	-7.19	355.18
2000 02 02 12	35596.80	0.00	232.73	0.00	-2.62	-9.74	292.38
2000 02 03 12	35942.40	0.00	276.04	0.00	-3.76	-12.65	239.05
2000 02 04 12	35942.40	5.02	180.86	0.00	-1.59	-8.62	320.00
2000 02 05 12	35942.40	10.75	241.44	0.00	0.53	-10.26	277.46
2000 02 06 12	36288.00	0.00	301.87	0.00	-0.70	-10.03	282.42
2000 02 07 12	36288.00	0.00	260.88	0.00	1.02	-6.60	360.00
2000 02 08 12	36633.59	0.00	395.26	0.00	0.89	-16.35	168.23
2000 02 09 12	36633.59	0.00	399.51	0.00	1.53	-16.39	170.78
2000 02 10 12	36633.59	0.00	397.88	0.00	8.32	-9.82	280.00
2000 02 11 12	36979.21	1.02	331.87	0.00	7.44	-3.93	445.68
2000 02 12 12	36979.21	0.00	387.52	0.00	4.81	-10.72	269.92
2000 02 13 12	37324.80	0.00	308.65	0.00	-1.50	-11.12	264.68
2000 02 14 12	37324.80	22.02	202.84	0.00	0.81	-7.12	360.00
2000 02 15 12	37646.73	7.74	219.18	0.00	3.38	-5.21	416.18
2000 02 16 12	37670.41	0.00	333.94	0.00	4.13	-5.71	404.07
2000 02 17 12	37670.41	0.00	412.13	0.00	7.03	-7.95	337.70
2000 02 18 12	38016.00	2.28	253.45	0.00	-0.14	-7.59	344.61
2000 02 19 12	38016.00	12.78	127.81	0.00	-0.33	-4.60	439.44
2000 02 20 12	38361.60	3.00	150.48	0.00	-0.26	-5.18	415.90
2000 02 21 12	38361.60	0.00	253.92	0.00	1.07	-5.19	416.90
2000 02 22 12	38707.19	0.00	397.20	0.00	6.10	-5.74	400.00
2000 02 23 12	38707.19	0.00	430.99	0.00	11.03	-3.69	464.43
2000 02 24 12	39052.79	0.00	398.34	0.00	13.11	0.68	636.96
2000 02 25 12	39052.79	4.09	319.63	0.00	16.90	1.50	680.31
2000 02 26 12	39052.79	0.00	398.63	0.00	16.03	3.22	778.00
2000 02 27 12	39398.40	0.00	168.55	0.00	8.20	3.99	800.00
2000 02 28 12	39398.40	18.05	302.33	0.00	12.77	0.33	624.31
2000 02 29 12	39744.00	0.00	428.60	0.00	9.28	-3.97	442.50
2000 03 01 12	39744.00	0.00	457.87	0.00	12.19	-3.76	459.30
2000 03 02 12	40089.61	6.44	265.09	0.00	8.76	-1.00	560.00
2000 03 03 12	40089.61	0.00	267.13	0.00	3.54	-3.10	487.87
2000 03 04 12	40435.20	0.00	439.35	0.00	8.32	-5.28	421.51
2000 03 05 12	40435.20	0.00	463.75	0.00	11.97	-3.89	448.81
2000 03 06 12	40780.80	0.00	466.35	0.00	12.71	-3.36	472.85
2000 03 07 12	40780.80	0.00	481.77	0.00	14.72	-3.16	479.44
2000 03 08 12	41126.39	0.00	502.47	0.00	22.46	-0.80	576.12
2000 03 09 12	41126.39	0.00	463.24	0.00	24.89	6.58	966.32
2000 03 10 12	41471.99	1.99	470.18	0.00	21.79	3.87	810.38
2000 03 11 12	41471.99	0.00	259.93	0.00	6.00	-0.68	581.91
2000 03 12 12	41817.61	15.99	152.77	0.00	4.70	-0.31	598.07
2000 03 13 12	41817.61	0.00	357.46	0.00	2.89	-6.25	383.97
2000 03 14 12	42163.20	0.00	463.87	0.00	8.59	-5.39	414.98
2000 03 15 12	42163.20	0.00	473.60	0.00	13.58	-1.59	551.13
2000 03 16 12	42508.80	0.00	482.10	0.00	18.38	1.66	692.07
2000 03 17 12	42508.80	18.27	369.12	0.00	13.58	-3.55	470.87
2000 03 18 12	42854.41	0.00	431.61	0.00	1.69	-10.45	273.40
2000 03 19 12	42854.41	0.00	448.76	0.00	5.37	-7.77	343.15
2000 03 20 12	43199.99	0.00	310.65	0.00	5.70	-2.39	511.24
2000 03 21 12	43199.99	2.32	244.04	0.00	8.41	1.55	685.37
2000 03 22 12	43199.99	19.67	128.03	0.00	6.42	2.22	715.49
2000 03 23 12	43545.60	0.00	321.20	0.00	11.43	2.95	755.71
2000 03 24 12	43545.60	0.00	473.84	0.00	14.27	-0.58	584.84
2000 03 25 12	43891.20	0.00	507.49	0.00	19.02	0.61	632.64
2000 03 26 12	43891.20	2.97	369.05	0.00	21.10	3.00	760.00
2000 03 27 12	44236.79	0.00	483.79	0.00	14.58	-2.07	520.00
2000 03 28 12	44236.79	3.10	310.69	0.00	13.52	0.50	640.00
2000 03 29 12	44582.39	0.00	321.75	0.00	10.31	1.19	663.52
2000 03 30 12	44582.39	0.00	203.45	0.00	6.44	1.12	657.59
2000 03 31 12	44927.99	0.00	466.06	0.00	10.39	-4.56	437.51
2000 04 01 12	44927.99	0.00	507.51	0.00	15.08	-3.87	453.14
2000 04 02 12	45273.60	0.00	502.31	0.00	18.90	-0.48	600.00
2000 04 03 12	45273.60	5.64	207.99	0.00	15.50	7.57	1045.85
2000 04 04 12	45619.20	26.55	263.59	0.00	20.37	9.55	1204.38
2000 04 05 12	45619.20	2.00	428.84	0.00	11.26	-1.92	533.26
2000 04 06 12	45964.80	1.00	381.24	0.00	9.23	-1.57	546.68
2000 04 07 12	45964.80	0.00	500.71	0.00	18.92	0.54	630.22
2000 04 08 12	46310.41	1.51	373.99	0.00	13.87	1.95	716.15
2000 04 09 12	46310.41	16.11	381.15	0.00	13.97	-4.00	456.85
2000 04 10 12	46655.98	1.00	371.98	0.00	8.47	-1.60	547.33
2000 04 11 12	46655.98	0.00	384.83	0.00	9.81	-0.87	575.56
2000 04 12 12	47001.60	1.02	303.83	0.00	8.07	0.12	616.37
2000 04 13 12	47001.60	0.00	440.34	0.00	7.72	-4.97	426.67
2000 04 14 12	47347.21	0.00	470.96	0.00	11.96	-2.50	520.00
2000 04 15 12	47347.21	0.00	492.25	0.00	19.18	2.52	721.57
2000 04 16 12	47347.21	0.00	496.45	0.00	24.42	6.50	960.00
2000 04 17 12	47692.81	11.00	372.62	0.00	24.11	5.80	920.00
2000 04 18 12	47692.81	15.88	138.98	0.00	8.04	3.48	788.97
2000 04 19 12	48038.42	12.00	151.00	0.00	8.50	3.58	791.74
2000 04 20 12	48038.42	0.00	335.18	0.00	14.98	6.05	923.63
2000 04 21 12	48384.01	12.29	210.73	0.00	15.88	8.50	1120.00
2000 04 22 12	48384.01	15.00	178.95	0.00	11.76	5.80	920.58
2000 04 23 12	48729.60	12.31	176.98	0.00	9.44	3.73	794.94
2000 04 24 12	48729.60	0.00	410.60	0.00	11.93	1.24	664.57
2000 04 25 12	48753.27	0.00	514.56	0.00	18.89	2.27	720.00
2000 04 26 12	49075.19	0.00	520.86	0.00	17.19	0.51	635.37
2000 04 27 12	49075.19	0.00	428.30	0.00	13.28	2.00	719.99
2000 04 28 12	49420.80	0.00	436.18	0.00	14.35	2.63	739.23
2000 04 29 12	49420.80	0.00	514.43	0.00	18.54	1.99	718.81
2000 04 30 12	49766.40	0.00	513.76	0.00	20.38	3.55	800.00
2000 05 01 12	49766.40	0.00	535.37	0.00	19.29	1.00	640.00
2000 05 02 12	49766.40	4.37	387.47	0.00	21.70	4.53	842.17
2000 05 03 12	50111.99	0.00	523.74	0.00	19.43	2.02	720.00
2000 05 04 12	50111.99	0.00	532.79	0.00	23.88	4.58	846.18
2000 05 05 12	50457.61	3.31	359.76	0.00	26.48	10.46	1276.96
2000 05 06 12	50457.61	0.00	467.26	0.00	28.79	13.00	1480.00
2000 05 07 12	50457.61	0.00	471.98	0.00	29.67	13.50	1560.00
2000 05 08 12	50803.19	0.00	462.43	0.00	30.36	14.50	1640.00
2000 05 09 12	50803.19	0.00	441.48	0.00	29.78	15.31	1744.50
2000 05 10 12	51072.36	0.00	436.54	0.00	30.01	15.60	1768.22
2000 05 11 12	51148.80	4.17	392.18	0.00	26.27	7.00	1005.87
2000 05 12 12	51148.80	0.00	459.85	0.00	24.21	9.41	1192.84
2000 05 13 12	51494.39	0.00	413.59	0.00	27.42	14.28	1622.60
2000 05 14 12	51494.39	4.41	395.30	0.00	25.91	6.16	944.20
2000 05 15 12	51494.39	0.00	508.37	0.00	18.14	1.38	676.46
2000 05 16 12	51839.99	0.00	511.82	0.00	17.40	0.56	640.00
2000 05 17 12	51839.99	0.00	505.02	0.00	20.10	3.44	794.90
2000 05 18 12	51839.99	0.00	472.62	0.00	24.19	8.50	1120.03
2000 05 19 12	52185.61	17.68	314.10	0.00	25.04	11.50	1360.08
2000 05 20 12	52185.61	4.70	138.47	0.00	13.36	8.44	1115.06
2000 05 21 12	52185.61	3.95	142.32	0.00	14.01	8.96	1156.71
2000 05 22 12	52209.29	0.00	235.70	0.00	16.48	10.00	1240.17
2000 05 23 12	52531.18	10.29	163.86	0.00	16.66	10.66	1292.66
2000 05 24 12	52531.18	23.66	198.72	0.00	19.10	11.69	1375.32
2000 05 25 12	52531.18	5.97	298.42	0.00	23.54	11.49	1358.92
2000 05 26 12	52800.38	0.00	476.16	0.00	21.40	6.29	954.50
2000 05 27 12	52876.81	0.00	432.00	0.00	20.63	7.62	1049.28
2000 05 28 12	52876.81	1.75	330.71	0.00	16.12	6.76	990.98
2000 05 29 12	52876.81	0.00	265.65	0.00	15.62	8.67	1133.67
2000 05 30 12	52900.48	0.00	458.53	0.00	18.61	5.07	880.66
2000 05 31 12	53222.39	0.00	474.00	0.00	20.92	6.53	971.76
2000 06 01 12	53222.39	0.00	466.70	0.00	26.78	11.93	1394.20
2000 06 02 12	53222.39	0.00	398.49	0.00	29.02	16.88	1910.18
2000 06 03 12	53222.39	6.25	383.78	0.00	27.80	10.17	1253.97
2000 06 04 12	53222.39	0.00	484.00	0.00	20.55	6.05	935.73
2000 06 05 12	53568.01	5.04	293.96	0.00	20.22	9.63	1210.15
2000 06 06 12	53568.01	18.38	109.09	0.00	13.45	10.16	1252.92
2000 06 07 12	53568.01	2.00	329.87	0.00	15.49	7.57	1045.94
2000 06 08 12	53568.01	0.00	472.40	0.00	23.64	10.07	1245.85
2000 06 09 12	53568.01	0.00	459.43	0.00	25.87	12.58	1446.59
2000 06 10 12	53568.01	0.00	484.73	0.00	29.76	14.50	1640.00
2000 06 11 12	53568.01	0.00	468.08	0.00	31.10	16.39	1862.23
2000 06 12 12	53591.68	14.32	310.17	0.00	30.62	18.50	2120.00
2000 06 13 12	53837.18	6.93	181.51	0.00	23.60	17.75	2037.76
2000 06 14 12	53913.62	26.64	230.24	0.00	23.74	16.42	1862.66
2000 06 15 12	53913.62	0.18	275.50	0.00	22.68	16.39	1858.45
2000 06 16 12	53913.62	13.87	249.88	0.00	25.32	17.54	2006.51
2000 06 17 12	53913.62	4.00	287.52	0.00	28.88	19.25	2239.75
2000 06 18 12	53913.62	4.00	280.17	0.00	24.60	16.03	1821.77
2000 06 19 12	53913.62	6.03	326.52	0.00	21.76	11.41	1352.88
2000 06 20 12	53913.62	0.00	498.72	0.00	24.19	10.63	1290.57
2000 06 21 12	53913.62	0.00	474.04	0.00	27.06	13.91	1592.81
2000 06 22 12	53913.62	27.76	310.07	0.00	27.67	16.75	1899.98
2000 06 23 12	53913.62	0.00	472.64	0.00	26.47	13.27	1524.45
2000 06 24 12	53913.62	0.00	481.53	0.00	26.63	12.92	1489.04
2000 06 25 12	53913.62	0.00	457.80	0.00	28.43	15.52	1761.44
2000 06 26 12	53913.62	0.00	342.02	0.00	28.74	20.00	2319.97
2000 06 27 12	53913.62	6.35	224.80	0.00	27.40	20.00	2324.63
2000 06 28 12	53591.68	8.09	345.31	0.00	24.64	12.26	1428.90
2000 06 29 12	53568.01	0.00	453.06	0.00	24.61	12.64	1468.12
2000 06 30 12	53568.01	3.58	350.51	0.00	23.88	11.43	1354.46
2000 07 01 12	53568.01	0.00	506.53	0.00	24.49	10.04	1242.81
2000 07 02 12	53568.01	0.00	506.12	0.00	26.58	11.59	1366.98
2000 07 03 12	53568.01	0.00	452.13	0.00	26.68	14.50	1640.13
2000 07 04 12	53568.01	5.94	218.86	0.00	24.10	17.38	1981.42
2000 07 05 12	53568.01	0.00	484.93	0.00	27.48	13.74	1571.99
2000 07 06 12	53491.57	0.00	523.42	0.00	26.78	10.45	1275.66
2000 07 07 12	53222.39	0.00	490.66	0.00	24.45	10.46	1276.75
2000 07 08 12	53222.39	0.00	525.14	0.00	23.53	7.56	1044.90
2000 07 09 12	53222.39	0.00	505.99	0.00	25.16	10.00	1240.00
2000 07 10 12	53222.39	6.76	339.73	0.00	26.86	14.06	1605.14
2000 07 11 12	53222.39	0.00	444.77	0.00	27.13	14.78	1685.13
2000 07 12 12	52876.81	0.00	523.63	0.00	26.36	9.68	1214.22
2000 07 13 12	52876.81	0.00	462.60	0.00	25.37	12.10	1407.64
2000 07 14 12	52876.81	0.00	416.45	0.00	25.53	14.09	1607.28
2000 07 15 12	52876.81	3.74	312.87	0.00	26.74	14.91	1697.99
2000 07 16 12	52531.18	10.68	267.81	0.00	23.88	14.44	1648.52
2000 07 17 12	52531.18	8.94	305.02	0.00	25.55	14.16	1617.60
2000 07 18 12	52531.18	0.00	376.98	0.00	26.00	15.61	1767.79
2000 07 19 12	52531.18	0.00	462.35	0.00	25.80	11.93	1396.10
2000 07 20 12	52185.61	1.47	330.75	0.00	20.94	12.50	1445.96
2000 07 21 12	52185.61	0.00	455.42	0.00	24.69	11.41	1352.53
2000 07 22 12	52185.61	2.41	396.42	0.00	25.04	12.19	1415.44
2000 07 23 12	51839.99	0.00	464.46	0.00	22.78	9.27	1181.91
2000 07 24 12	51839.99	0.00	440.30	0.00	23.33	10.82	1305.52
2000 07 25 12	51839.99	0.00	360.17	0.00	22.54	13.08	1503.17
2000 07 26 12	51494.39	0.00	395.30	0.00	24.27	13.37	1534.25
2000 07 27 12	51494.39	0.00	331.91	0.00	24.46	15.57	1765.92
2000 07 28 12	51494.39	0.00	415.58	0.00	27.87	15.62	1771.27
2000 07 29 12	51148.80	5.43	286.80	0.00	26.32	15.55	1762.47
2000 07 30 12	51148.80	2.25	243.95	0.00	23.86	17.21	1957.05
2000 07 31 12	51148.80	4.70	216.78	0.00	27.61	19.84	2307.10
2000 08 01 12	50803.19	0.00	323.07	0.00	28.58	19.83	2308.30
2000 08 02 12	50803.19	12.93	262.48	0.00	27.87	18.35	2111.68
2000 08 03 12	50803.19	8.00	268.48	0.00	28.50	18.56	2138.67
2000 08 04 12	50457.61	5.23	257.62	0.00	25.03	16.07	1826.06
2000 08 05 12	50457.61	0.00	481.34	0.00	23.87	9.70	1216.35
2000 08 06 12	50111.99	3.71	391.35	0.00	24.38	11.63	1370.03
2000 08 07 12	50111.99	25.05	297.45	0.00	24.50	14.01	1600.41
2000 08 08 12	50111.99	17.12	248.14	0.00	27.29	18.69	2159.86
2000 08 09 12	49766.40	0.00	337.84	0.00	28.59	19.69	2294.96
2000 08 10 12	49766.40	0.00	370.89	0.00	28.10	18.21	2094.59
2000 08 11 12	49420.80	0.00	442.64	0.00	27.45	14.96	1702.87
2000 08 12 12	49420.80	9.03	340.50	0.00	25.36	12.63	1459.55
2000 08 13 12	49420.80	3.91	282.91	0.00	22.79	13.44	1540.89
2000 08 14 12	49075.19	0.00	399.10	0.00	24.18	13.98	1595.20
2000 08 15 12	49075.19	0.00	434.65	0.00	26.81	14.66	1674.56
2000 08 16 12	48729.60	8.14	290.22	0.00	27.65	17.20	1953.51
2000 08 17 12	48729.60	0.00	456.12	0.00	23.75	10.98	1318.13
2000 08 18 12	48384.01	0.68	270.65	0.00	18.66	12.49	1439.68
2000 08 19 12	48384.01	0.98	349.92	0.00	19.90	11.62	1369.40
2000 08 20 12	48062.08	0.00	493.50	0.00	22.57	7.73	1060.77
2000 08 21 12	48038.42	0.00	503.47	0.00	21.79	6.18	948.48
2000 08 22 12	48038.42	0.00	494.41	0.00	23.18	7.81	1064.69
2000 08 23 12	47692.81	0.00	461.19	0.00	25.33	11.48	1358.44
2000 08 24 12	47692.81	13.31	230.31	0.00	24.15	16.36	1857.43
2000 08 25 12	47347.21	0.00	473.58	0.00	25.85	10.86	1309.10
2000 08 26 12	47347.21	0.00	472.27	0.00	26.22	10.91	1312.42
2000 08 27 12	47001.60	0.00	440.77	0.00	25.59	12.19	1415.37
2000 08 28 12	47001.60	11.37	256.95	0.00	24.12	14.94	1703.06
2000 08 29 12	46655.98	0.58	293.27	0.00	24.48	16.34	1852.86
2000 08 30 12	46655.98	0.00	237.75	0.00	24.04	17.87	2052.72
2000 08 31 12	46310.41	0.00	300.77	0.00	25.37	17.30	1976.67
2000 09 01 12	46310.41	0.35	243.25	0.00	26.20	19.50	2280.00
2000 09 02 12	45964.80	0.00	288.00	0.00	28.05	20.06	2330.06
2000 09 03 12	45964.80	0.00	369.80	0.00	29.03	17.92	2055.31
2000 09 04 12	45964.80	0.00	380.10	0.00	28.67	17.18	1964.68
2000 09 05 12	45619.20	0.00	498.37	0.00	25.52	5.72	915.00
2000 09 06 12	45619.20	0.00	480.97	0.00	19.94	3.30	775.32
2000 09 07 12	45273.60	0.00	467.96	0.00	20.92	4.78	860.97
2000 09 08 12	45273.60	0.00	442.97	0.00	22.67	7.67	1053.82
2000 09 09 12	44927.99	0.00	439.61	0.00	27.13	11.06	1325.17
2000 09 10 12	44927.99	0.00	367.50	0.00	27.49	15.38	1750.73
2000 09 11 12	44582.39	4.30	244.80	0.00	27.46	17.06	1942.82
2000 09 12 12	44582.39	2.95	123.29	0.00	23.73	19.33	2244.24
2000 09 13 12	44236.79	15.10	283.26	0.00	27.28	14.47	1653.80
2000 09 14 12	44236.79	0.00	429.97	0.00	22.85	7.59	1050.19
2000 09 15 12	43891.20	3.84	289.99	0.00	22.79	9.82	1225.41
2000 09 16 12	43891.20	1.87	352.64	0.00	18.12	7.37	1029.45
2000 09 17 12	43545.60	1.32	389.58	0.00	17.21	4.53	846.63
2000 09 18 12	43545.60	0.00	418.33	0.00	21.37	6.01	920.41
2000 09 19 12	43199.99	0.00	366.28	0.00	22.24	9.72	1217.62
2000 09 20 12	43199.99	1.00	307.82	0.00	20.15	10.50	1279.92
2000 09 21 12	42854.41	2.00	393.27	0.00	26.91	11.94	1394.92
2000 09 22 12	42854.41	0.00	381.02	0.00	17.95	5.07	878.92
2000 09 23 12	42508.80	0.00	377.38	0.00	19.50	6.32	950.43
2000 09 24 12	42508.80	15.55	221.79	0.00	21.80	12.10	1408.00
2000 09 25 12	42163.20	2.60	315.21	0.00	16.97	5.32	890.60
2000 09 26 12	42163.20	9.80	185.47	0.00	13.06	5.80	920.88
2000 09 27 12	41817.61	7.23	238.16	0.00	14.23	4.24	829.73
2000 09 28 12	41817.61	0.00	364.43	0.00	18.18	5.36	908.72
2000 09 29 12	41471.99	0.00	397.77	0.00	13.86	-1.09	567.71
2000 09 30 12	41471.99	0.00	408.00	0.00	16.32	-0.38	593.58
2000 10 01 12	41126.39	0.00	393.01	0.00	19.74	3.22	777.27
2000 10 02 12	41126.39	0.00	367.77	0.00	20.96	5.85	923.72
2000 10 03 12	40780.80	0.00	366.60	0.00	23.83	7.94	1074.99
2000 10 04 12	40780.80	0.00	353.72	0.00	24.04	8.71	1137.15
2000 10 05 12	40435.20	6.70	221.42	0.00	21.72	10.23	1258.36
2000 10 06 12	40435.20	24.95	134.09	0.00	16.55	10.40	1271.63
2000 10 07 12	40435.20	0.00	325.51	0.00	16.19	3.84	803.51
2000 10 08 12	40089.61	0.00	306.86	0.00	10.66	-0.33	596.29
2000 10 09 12	40089.61	0.00	283.91	0.00	8.57	-1.24	558.17
2000 10 10 12	39744.00	0.40	209.55	0.00	6.85	0.01	607.48
2000 10 11 12	39744.00	0.84	303.33	0.00	13.17	2.07	720.00
2000 10 12 12	39398.40	0.00	365.27	0.00	18.80	2.03	720.00
2000 10 13 12	39398.40	0.00	373.80	0.00	21.30	2.43	720.00
2000 10 14 12	39052.79	0.00	370.97	0.00	23.08	3.59	800.00
2000 10 15 12	39052.79	0.00	348.79	0.00	23.61	6.15	931.75
2000 10 16 12	38707.19	0.00	253.95	0.00	19.74	9.30	1183.69
2000 10 17 12	38707.19	4.02	179.77	0.00	19.46	10.26	1260.66
2000 10 18 12	38361.60	35.30	82.84	0.00	14.51	10.49	1278.88
2000 10 19 12	38361.60	0.00	294.98	0.00	17.35	4.77	863.84
2000 10 20 12	38337.93	0.00	333.64	0.00	17.79	1.59	687.07
2000 10 21 12	38016.00	0.00	351.19	0.00	22.04	2.20	720.00
2000 10 22 12	38016.00	0.00	338.90	0.00	22.93	4.00	800.00
2000 10 23 12	37670.41	0.00	338.11	0.00	16.79	-1.43	549.88
2000 10 24 12	37670.41	0.00	316.39	0.00	16.33	0.10	607.99
2000 10 25 12	37324.80	1.30	173.86	0.00	14.44	7.00	1000.00
2000 10 26 12	37324.80	0.00	255.43	0.00	20.13	7.79	1063.84
2000 10 27 12	36979.21	0.00	276.24	0.00	20.94	6.71	985.88
2000 10 28 12	36979.21	3.61	215.03	0.00	21.55	7.57	1045.99
2000 10 29 12	36979.21	0.00	269.40	0.00	11.15	-1.97	522.08
2000 10 30 12	36633.59	0.00	266.54	0.00	11.84	-1.26	560.00
2000 10 31 12	36633.59	0.00	291.63	0.00	13.45	-2.07	527.20
2000 11 01 12	36288.00	0.00	283.60	0.00	12.81	-2.14	522.35
2000 11 02 12	36288.00	0.00	293.69	0.00	15.05	-1.52	556.36
2000 11 03 12	36288.00	0.00	298.44	0.00	17.38	-0.50	599.62
2000 11 04 12	35942.40	0.00	257.94	0.00	16.50	2.60	728.39
2000 11 05 12	35942.40	0.00	203.14	0.00	11.96	1.90	697.81
2000 11 06 12	35596.80	0.00	269.51	0.00	10.37	-4.68	436.22
2000 11 07 12	35596.80	0.00	272.51	0.00	11.76	-4.13	443.65
2000 11 08 12	35596.80	0.00	242.60	0.00	14.75	1.04	645.43
2000 11 09 12	35251.20	3.10	164.23	0.00	18.50	7.50	1040.00
2000 11 10 12	35251.20	21.60	77.65	0.00	14.23	8.87	1149.24
2000 11 11 12	35251.20	4.54	65.86	0.00	9.93	5.74	917.64
2000 11 12 12	34905.61	0.00	95.15	0.00	7.38	2.90	755.47
2000 11 13 12	34905.61	0.00	113.21	0.00	7.04	1.80	695.86
2000 11 14 12	34905.61	1.22	120.12	0.00	7.75	2.26	718.73
2000 11 15 12	34560.01	0.00	173.97	0.00	6.88	-1.36	554.79
2000 11 16 12	34560.01	0.00	163.69	0.00	2.95	-4.71	440.00
2000 11 17 12	34560.01	0.00	202.89	0.00	6.23	-3.99	440.82
2000 11 18 12	34214.39	0.00	102.85	0.00	3.37	-1.34	556.87
2000 11 19 12	34214.39	0.00	145.81	0.00	1.67	-5.00	421.75
2000 11 20 12	34214.39	0.00	178.25	0.00	2.07	-6.18	386.34
2000 11 21 12	33868.81	0.00	147.51	0.00	1.63	-4.88	440.00
2000 11 22 12	33868.81	0.36	154.63	0.00	-1.91	-8.23	328.13
2000 11 23 12	33868.81	0.68	195.86	0.00	-2.70	-10.52	275.29
2000 11 24 12	33868.81	0.00	220.31	0.00	-1.19	-10.45	275.66
2000 11 25 12	33523.20	0.00	192.96	0.00	1.66	-6.20	383.94
2000 11 26 12	33523.20	17.17	170.14	0.00	5.74	-4.22	440.11
2000 11 27 12	33523.20	5.94	72.05	0.00	7.39	3.41	792.99
2000 11 28 12	33523.20	0.61	59.11	0.00	4.89	2.68	743.04
2000 11 29 12	33177.61	0.00	121.40	0.00	4.97	0.15	617.04
2000 11 30 12	33177.61	3.20	98.87	0.00	5.26	0.07	612.21
2000 12 01 12	33177.61	0.00	110.31	0.00	2.25	-1.84	536.76
2000 12 02 12	33177.61	0.00	233.95	0.00	1.87	-8.82	311.00
2000 12 03 12	33177.61	0.00	248.81	0.00	-0.79	-13.13	223.32
2000 12 04 12	32908.44	0.00	256.98	0.00	0.97	-13.34	220.19
2000 12 05 12	32832.00	0.00	258.04	0.00	3.60	-11.99	240.00
2000 12 06 12	32832.00	0.00	213.44	0.00	0.35	-8.80	313.43
2000 12 07 12	32832.00	0.00	142.77	0.00	-4.14	-9.27	298.33
2000 12 08 12	32832.00	3.81	116.82	0.00	-1.92	-6.92	361.83
2000 12 09 12	32832.00	0.00	222.14	0.00	-0.19	-8.08	335.92
2000 12 10 12	32832.00	0.00	244.85	0.00	-1.20	-10.86	280.00
2000 12 11 12	32832.00	0.00	228.56	0.00	1.28	-7.44	354.40
2000 12 12 12	32808.33	5.93	161.64	0.00	5.61	-2.72	500.60
2000 12 13 12	32486.39	0.00	254.53	0.00	-0.70	-11.79	248.78
2000 12 14 12	32486.39	17.64	189.66	0.00	-0.11	-11.01	266.46
2000 12 15 12	32486.39	0.00	193.53	0.00	1.79	-5.17	426.28
2000 12 16 12	32486.39	0.00	160.05	0.00	0.73	-4.77	440.00
2000 12 17 12	32486.39	19.16	186.25	0.00	9.46	-1.74	541.49
2000 12 18 12	32486.39	4.04	219.73	0.00	6.10	-9.79	290.48
2000 12 19 12	32486.39	2.98	142.50	0.00	-4.72	-11.16	264.12
2000 12 20 12	32486.39	6.58	168.35	0.00	-3.46	-12.20	239.00
2000 12 21 12	32486.39	0.00	205.02	0.00	-5.62	-13.12	223.76
2000 12 22 12	32486.39	2.26	173.32	0.00	-3.87	-10.86	271.49
2000 12 23 12	32486.39	0.00	255.70	0.00	-6.01	-16.88	163.61
2000 12 24 12	32486.39	0.00	244.56	0.00	-4.77	-14.75	199.44
2000 12 25 12	32486.39	0.00	227.06	0.00	-3.46	-12.29	235.24
2000 12 26 12	32486.39	0.00	160.12	0.00	-7.58	-13.04	225.81
2000 12 27 12	32562.83	0.00	171.31	0.00	-5.89	-11.84	248.64
2000 12 28 12	32808.33	0.05	212.45	0.00	-4.94	-12.90	227.55
2000 12 29 12	32832.00	0.00	222.29	0.00	-7.13	-15.71	183.04
2000 12 30 12	32832.00	0.00	224.52	0.00	-5.83	-14.57	200.00
2000 12 31 12	32832.00	0.00	223.40	0.00	-6.48	-15.14	191.52
2001 01 01 12	32832.00	0.00	152.00	0.00	-2.96	-8.07	332.60
2001 01 02 12	32832.00	0.00	234.68	0.00	-2.59	-11.58	256.92
2001 01 03 12	32832.00	0.00	213.39	0.00	-4.23	-11.91	244.96
2001 01 04 12	32832.00	0.00	194.05	0.00	-2.93	-9.66	294.26
2001 01 05 12	32832.00	0.00	163.10	0.00	-2.71	-8.20	322.36
2001 01 06 12	33177.61	4.00	132.06	0.00	-0.01	-5.99	389.05
2001 01 07 12	33177.61	0.00	211.40	0.00	0.46	-6.98	360.00
2001 01 08 12	33177.61	0.00	173.68	0.00	1.40	-4.50	440.00
2001 01 09 12	33177.61	0.42	274.14	0.00	0.78	-10.86	268.39
2001 01 10 12	33177.61	0.00	207.50	0.00	-3.99	-10.97	266.34
2001 01 11 12	33499.53	0.00	230.30	0.00	2.15	-6.04	388.66
2001 01 12 12	33523.20	0.00	282.24	0.00	4.66	-7.72	342.54
2001 01 13 12	33523.20	0.00	289.20	0.00	3.83	-9.00	319.97
2001 01 14 12	33523.20	0.00	287.25	0.00	3.49	-8.88	320.00
2001 01 15 12	33599.64	1.16	226.95	0.00	2.74	-4.99	440.00
2001 01 16 12	33868.81	1.34	120.68	0.00	3.51	-0.39	600.00
2001 01 17 12	33868.81	0.00	83.75	0.00	1.46	-1.12	567.14
2001 01 18 12	33868.81	0.00	82.83	0.00	0.41	-2.17	521.48
2001 01 19 12	34190.73	4.00	59.92	0.00	0.62	-1.93	532.54
2001 01 20 12	34214.39	3.00	89.65	0.00	0.62	-3.29	480.70
2001 01 21 12	34214.39	7.81	187.01	0.00	-2.00	-10.20	277.93
2001 01 22 12	34214.39	0.00	242.09	0.00	-3.13	-10.81	274.38
2001 01 23 12	34560.01	0.00	314.42	0.00	-2.15	-14.54	198.30
2001 01 24 12	34560.01	0.00	331.68	0.00	2.85	-12.50	240.00
2001 01 25 12	34560.01	0.00	258.28	0.00	2.61	-5.76	400.00
2001 01 26 12	34905.61	0.00	291.65	0.00	-0.96	-10.77	269.54
2001 01 27 12	34905.61	0.95	293.71	0.00	0.54	-9.27	302.52
2001 01 28 12	34905.61	0.00	260.07	0.00	0.32	-7.56	346.18
2001 01 29 12	35251.20	0.00	318.34	0.00	-1.11	-12.22	238.59
2001 01 30 12	35251.20	3.09	243.76	0.00	2.42	-9.48	289.89
2001 01 31 12	35327.63	10.57	157.57	0.00	5.77	-0.19	599.32
2001 02 01 12	35596.80	2.66	104.64	0.00	3.39	0.17	619.06
2001 02 02 12	35596.80	0.00	171.80	0.00	2.80	-1.70	544.60
2001 02 03 12	35942.40	0.00	325.65	0.00	0.83	-9.68	294.42
2001 02 04 12	35942.40	0.00	283.80	0.00	-1.94	-9.99	284.89
2001 02 05 12	35942.40	0.00	246.74	0.00	2.22	-4.54	440.00
2001 02 06 12	36288.00	0.00	214.98	0.00	4.18	-1.45	560.00
2001 02 07 12	36288.00	2.89	156.87	0.00	3.88	-1.23	560.70
2001 02 08 12	36633.59	0.00	291.33	0.00	3.50	-5.26	417.59
2001 02 09 12	36633.59	2.00	290.01	0.00	8.01	-1.50	560.00
2001 02 10 12	36633.59	2.00	339.12	0.00	14.07	-1.64	543.58
2001 02 11 12	36979.21	0.00	303.49	0.00	0.55	-9.26	303.96
2001 02 12 12	36979.21	0.00	296.38	0.00	-1.44	-10.49	271.86
2001 02 13 12	37324.80	0.00	339.80	0.00	4.76	-7.61	351.09
2001 02 14 12	37324.80	0.00	271.87	0.00	8.07	-0.09	601.57
2001 02 15 12	37646.73	11.15	200.33	0.00	8.20	0.29	624.30
2001 02 16 12	37670.41	4.08	138.51	0.00	3.63	-0.91	576.91
2001 02 17 12	37670.41	4.85	214.83	0.00	3.51	-4.67	432.09
2001 02 18 12	38016.00	0.00	274.76	0.00	-3.01	-10.42	275.48
2001 02 19 12	38016.00	0.00	317.89	0.00	-0.66	-10.00	280.00
2001 02 20 12	38361.60	0.00	390.25	0.00	7.67	-8.48	320.00
2001 02 21 12	38361.60	0.00	379.04	0.00	10.16	-4.33	445.92
2001 02 22 12	38707.19	0.00	343.05	0.00	-2.66	-13.10	224.30
2001 02 23 12	38707.19	4.15	235.53	0.00	-4.00	-11.80	247.48
2001 02 24 12	39052.79	0.00	389.93	0.00	0.86	-10.14	277.86
2001 02 25 12	39052.79	2.49	321.44	0.00	2.13	-7.66	344.05
2001 02 26 12	39052.79	3.01	321.06	0.00	12.24	-0.90	575.18
2001 02 27 12	39398.40	0.00	356.54	0.00	4.24	-5.10	429.92
2001 02 28 12	39398.40	0.00	409.65	0.00	5.17	-6.56	374.07
2001 03 01 12	39744.00	0.00	361.52	0.00	0.86	-8.13	330.51
2001 03 02 12	39744.00	0.00	346.11	0.00	2.33	-6.13	386.18
2001 03 03 12	40089.61	0.00	235.16	0.00	4.63	-0.73	581.29
2001 03 04 12	40089.61	0.00	313.00	0.00	4.18	-3.59	469.67
2001 03 05 12	40435.20	28.20	159.14	0.00	0.37	-4.50	437.44
2001 03 06 12	40435.20	2.90	345.38	0.00	-0.95	-10.43	280.00
2001 03 07 12	40780.80	1.76	321.03	0.00	0.91	-7.24	352.99
2001 03 08 12	40780.80	0.00	334.94	0.00	5.12	-2.88	489.33
2001 03 09 12	41126.39	4.83	264.59	0.00	4.37	-4.27	447.92
2001 03 10 12	41126.39	0.73	325.21	0.00	2.34	-5.18	416.52
2001 03 11 12	41471.99	0.00	404.14	0.00	3.40	-6.89	361.12
2001 03 12 12	41471.99	0.35	484.02	0.00	6.49	-9.43	298.28
2001 03 13 12	41817.61	13.12	362.46	0.00	7.38	-6.78	364.43
2001 03 14 12	41817.61	5.26	286.10	0.00	8.65	-0.32	597.14
2001 03 15 12	42163.20	0.00	406.09	0.00	6.47	-3.17	480.00
2001 03 16 12	42163.20	0.00	386.39	0.00	6.55	-2.23	520.00
2001 03 17 12	42508.80	9.90	160.51	0.00	3.62	-0.73	581.40
2001 03 18 12	42508.80	2.34	371.83	0.00	5.64	-3.61	466.34
2001 03 19 12	42854.41	0.00	495.71	0.00	7.34	-6.26	382.15
2001 03 20 12	42854.41	0.00	522.62	0.00	9.90	-6.46	373.75
2001 03 21 12	43199.99	0.91	459.15	0.00	9.68	-2.78	501.88
2001 03 22 12	43199.99	29.96	119.23	0.00	4.01	0.86	640.82
2001 03 23 12	43199.99	0.00	335.04	0.00	6.20	-1.06	568.41
2001 03 24 12	43545.60	0.00	443.55	0.00	9.58	-1.88	529.57
2001 03 25 12	43545.60	0.00	462.60	0.00	5.86	-6.10	390.00
2001 03 26 12	43891.20	0.69	398.35	0.00	0.43	-8.25	328.68
2001 03 27 12	43891.20	0.00	446.65	0.00	-0.85	-11.11	264.42
2001 03 28 12	44236.79	0.00	468.47	0.00	2.72	-8.43	320.13
2001 03 29 12	44236.79	0.00	477.43	0.00	7.23	-4.61	434.58
2001 03 30 12	44582.39	17.58	260.14	0.00	6.95	-0.50	600.00
2001 03 31 12	44582.39	3.77	216.27	0.00	5.80	-0.03	608.57
2001 04 01 12	44927.99	0.00	323.58	0.00	7.00	0.37	624.76
2001 04 02 12	44927.99	0.00	339.54	0.00	7.74	0.67	638.98
2001 04 03 12	45273.60	0.00	443.07	0.00	7.40	-2.90	496.96
2001 04 04 12	45273.60	4.27	368.89	0.00	9.55	-3.74	465.17
2001 04 05 12	45619.20	0.00	531.04	0.00	13.56	-3.66	465.19
2001 04 06 12	45619.20	4.78	389.35	0.00	15.73	-1.00	560.00
2001 04 07 12	45964.80	8.44	254.37	0.00	13.59	5.84	920.11
2001 04 08 12	45964.80	3.28	249.75	0.00	13.08	5.77	917.05
2001 04 09 12	46310.41	0.00	491.02	0.00	20.28	5.13	888.84
2001 04 10 12	46310.41	3.00	385.01	0.00	25.28	6.03	933.43
2001 04 11 12	46655.98	0.00	341.51	0.00	14.87	6.87	990.48
2001 04 12 12	46655.98	3.96	131.93	0.00	12.21	8.55	1124.39
2001 04 13 12	47001.60	0.00	470.85	0.00	22.49	8.91	1150.59
2001 04 14 12	47001.60	0.00	534.36	0.00	18.97	0.39	624.49
2001 04 15 12	47347.21	0.00	514.43	0.00	18.98	2.50	718.47
2001 04 16 12	47347.21	23.96	325.09	0.00	15.22	3.69	797.75
2001 04 17 12	47347.21	4.22	288.19	0.00	9.30	0.04	613.46
2001 04 18 12	47692.81	0.96	270.78	0.00	4.05	-1.79	537.55
2001 04 19 12	47692.81	0.00	485.84	0.00	7.47	-5.29	416.46
2001 04 20 12	48038.42	0.00	523.99	0.00	12.74	-3.00	480.00
2001 04 21 12	48038.42	8.95	345.88	0.00	13.98	1.62	689.81
2001 04 22 12	48384.01	1.57	358.07	0.00	17.75	8.69	1134.94
2001 04 23 12	48384.01	0.00	485.25	0.00	26.71	11.08	1319.45
2001 04 24 12	48729.60	0.00	488.41	0.00	28.90	12.36	1417.52
2001 04 25 12	48729.60	0.00	523.04	0.00	19.13	2.01	706.54
2001 04 26 12	48753.27	0.00	515.72	0.00	14.74	-1.19	560.11
2001 04 27 12	49075.19	0.00	535.26	0.00	19.67	1.04	647.01
2001 04 28 12	49075.19	0.00	529.07	0.00	21.03	2.64	735.34
2001 04 29 12	49420.80	0.00	537.74	0.00	16.27	-2.38	514.45
2001 04 30 12	49420.80	0.00	539.94	0.00	20.44	0.37	629.38
2001 05 01 12	49766.40	0.00	541.37	0.00	25.88	3.85	783.27
2001 05 02 12	49766.40	0.00	514.22	0.00	28.75	8.52	1075.58
2001 05 03 12	49766.40	0.00	490.41	0.00	29.16	10.56	1237.38
2001 05 04 12	50111.99	0.00	485.04	0.00	30.65	12.00	1357.33
2001 05 05 12	50111.99	0.00	480.64	0.00	29.35	11.37	1316.87
2001 05 06 12	50457.61	0.00	479.40	0.00	21.38	4.98	869.17
2001 05 07 12	50457.61	0.00	463.77	0.00	20.28	4.72	856.87
2001 05 08 12	50457.61	0.00	422.09	0.00	20.13	6.45	956.08
2001 05 09 12	50803.19	2.00	368.30	0.00	20.43	9.00	1159.05
2001 05 10 12	50803.19	0.00	468.45	0.00	23.87	7.71	1044.59
2001 05 11 12	51072.36	0.00	479.04	0.00	25.97	8.62	1099.05
2001 05 12 12	51148.80	2.34	396.34	0.00	26.98	10.52	1264.02
2001 05 13 12	51148.80	4.35	306.11	0.00	18.24	5.09	880.48
2001 05 14 12	51494.39	0.00	480.75	0.00	17.62	1.16	660.71
2001 05 15 12	51494.39	3.39	348.72	0.00	17.09	1.52	683.77
2001 05 16 12	51494.39	0.00	512.59	0.00	21.06	2.00	699.44
2001 05 17 12	51839.99	0.00	440.87	0.00	21.00	6.00	918.19
2001 05 18 12	51839.99	0.00	112.31	0.00	13.08	10.13	1250.66
2001 05 19 12	51839.99	0.00	317.76	0.00	21.46	11.50	1360.13
2001 05 20 12	52185.61	0.00	466.01	0.00	24.78	8.25	1064.28
2001 05 21 12	52185.61	4.04	238.26	0.00	20.32	10.47	1277.77
2001 05 22 12	52185.61	6.40	93.48	0.00	14.39	11.06	1324.77
2001 05 23 12	52209.29	16.94	306.69	0.00	21.71	8.49	1119.04
2001 05 24 12	52531.18	0.00	444.26	0.00	21.91	7.22	1016.70
2001 05 25 12	52531.18	0.00	417.18	0.00	23.04	9.52	1199.52
2001 05 26 12	52531.18	18.90	169.63	0.00	16.90	10.50	1280.33
2001 05 27 12	52800.38	2.60	287.33	0.00	18.96	9.28	1182.24
2001 05 28 12	52876.81	8.98	278.38	0.00	18.71	7.98	1078.09
2001 05 29 12	52876.81	0.00	301.41	0.00	16.90	8.71	1136.51
2001 05 30 12	52876.81	0.00	469.81	0.00	19.97	5.59	908.44
2001 05 31 12	52900.48	0.00	505.55	0.00	17.25	1.50	682.29
2001 06 01 12	53222.39	0.00	498.88	0.00	19.41	3.91	803.91
2001 06 02 12	53222.39	10.80	209.60	0.00	16.05	9.01	1160.46
2001 06 03 12	53222.39	10.03	263.62	0.00	19.99	10.84	1306.98
2001 06 04 12	53222.39	0.00	301.68	0.00	17.00	9.67	1213.90
2001 06 05 12	53222.39	0.00	484.12	0.00	21.52	7.56	1049.08
2001 06 06 12	53568.01	0.00	421.09	0.00	22.62	11.32	1345.93
2001 06 07 12	53568.01	3.33	285.60	0.00	20.91	12.63	1450.85
2001 06 08 12	53568.01	0.00	498.31	0.00	24.04	9.22	1164.74
2001 06 09 12	53568.01	0.00	525.88	0.00	24.56	7.92	1045.60
2001 06 10 12	53568.01	0.00	517.52	0.00	25.06	8.94	1124.94
2001 06 11 12	53568.01	3.09	389.27	0.00	25.95	11.06	1317.53
2001 06 12 12	53568.01	0.00	474.22	0.00	26.73	12.77	1452.15
2001 06 13 12	53591.68	9.98	354.37	0.00	29.12	14.69	1676.08
2001 06 14 12	53837.18	0.00	463.16	0.00	30.02	16.03	1787.10
2001 06 15 12	53913.62	0.00	423.57	0.00	29.90	17.82	2036.13
2001 06 16 12	53913.62	0.00	310.93	0.00	27.50	19.60	2287.91
2001 06 17 12	53913.62	12.40	360.14	0.00	27.90	13.41	1541.98
2001 06 18 12	53913.62	0.00	494.55	0.00	27.50	12.38	1399.25
2001 06 19 12	53913.62	0.00	486.93	0.00	29.05	14.05	1552.79
2001 06 20 12	53913.62	0.00	478.85	0.00	31.24	15.99	1754.91
2001 06 21 12	53913.62	9.71	313.07	0.00	29.21	16.91	1918.48
2001 06 22 12	53913.62	11.41	219.56	0.00	25.09	17.51	2005.07
2001 06 23 12	53913.62	16.25	236.59	0.00	23.35	15.41	1748.95
2001 06 24 12	53913.62	17.81	280.25	0.00	20.10	10.83	1306.77
2001 06 25 12	53913.62	0.00	468.63	0.00	24.79	11.31	1346.54
2001 06 26 12	53913.62	0.00	475.37	0.00	26.76	12.49	1447.08
2001 06 27 12	53913.62	0.00	468.13	0.00	29.08	14.57	1650.16
2001 06 28 12	53913.62	0.00	445.52	0.00	30.33	16.50	1880.00
2001 06 29 12	53591.68	0.00	426.11	0.00	30.32	17.39	1987.56
2001 06 30 12	53568.01	0.00	407.78	0.00	30.41	18.30	2104.21
2001 07 01 12	53568.01	5.48	282.43	0.00	28.77	18.17	2084.71
2001 07 02 12	53568.01	11.04	403.52	0.00	25.40	6.82	994.34
2001 07 03 12	53568.01	0.00	492.71	0.00	21.67	6.83	994.94
2001 07 04 12	53568.01	3.11	311.40	0.00	23.66	11.81	1384.75
2001 07 05 12	53568.01	1.81	339.33	0.00	25.31	15.99	1799.35
2001 07 06 12	53568.01	6.03	388.32	0.00	25.54	8.16	1092.53
2001 07 07 12	53491.57	0.00	472.50	0.00	23.47	9.02	1161.33
2001 07 08 12	53222.39	2.90	342.55	0.00	26.51	12.99	1479.42
2001 07 09 12	53222.39	0.00	470.56	0.00	28.54	13.34	1528.82
2001 07 10 12	53222.39	0.00	452.67	0.00	29.64	15.14	1720.32
2001 07 11 12	53222.39	10.21	296.38	0.00	27.29	15.68	1774.61
2001 07 12 12	53222.39	0.00	448.91	0.00	23.77	10.57	1285.61
2001 07 13 12	52876.81	0.00	478.41	0.00	23.48	8.89	1151.45
2001 07 14 12	52876.81	0.00	446.94	0.00	23.99	10.82	1305.59
2001 07 15 12	52876.81	0.00	472.40	0.00	25.20	10.55	1284.16
2001 07 16 12	52876.81	0.00	432.51	0.00	26.94	13.70	1574.33
2001 07 17 12	52531.18	4.00	301.19	0.00	27.31	15.31	1742.07
2001 07 18 12	52531.18	0.00	367.07	0.00	27.73	17.01	1922.91
2001 07 19 12	52531.18	0.00	358.77	0.00	27.02	16.80	1904.38
2001 07 20 12	52531.18	0.00	430.09	0.00	27.43	14.53	1654.33
2001 07 21 12	52185.61	0.00	479.10	0.00	28.14	12.72	1419.28
2001 07 22 12	52185.61	0.00	466.34	0.00	28.40	13.35	1485.68
2001 07 23 12	52185.61	0.00	446.14	0.00	29.72	15.19	1692.11
2001 07 24 12	51839.99	0.00	429.15	0.00	32.54	18.04	2030.70
2001 07 25 12	51839.99	0.00	390.39	0.00	32.91	20.00	2320.74
2001 07 26 12	51839.99	6.35	301.07	0.00	29.17	16.52	1880.04
2001 07 27 12	51494.39	0.00	487.97	0.00	23.17	7.37	1030.18
2001 07 28 12	51494.39	0.00	462.78	0.00	24.33	9.65	1211.28
2001 07 29 12	51494.39	0.00	402.23	0.00	24.90	12.83	1476.20
2001 07 30 12	51148.80	1.16	154.44	0.00	19.98	15.76	1786.94
2001 07 31 12	51148.80	1.91	283.51	0.00	22.94	13.90	1591.87
2001 08 01 12	51148.80	0.00	432.63	0.00	27.97	14.42	1645.39
2001 08 02 12	50803.19	0.00	443.22	0.00	29.88	15.42	1748.48
2001 08 03 12	50803.19	0.00	395.73	0.00	30.30	17.79	2046.66
2001 08 04 12	50803.19	4.11	205.68	0.00	26.57	18.78	2171.21
2001 08 05 12	50457.61	3.32	334.81	0.00	29.84	16.25	1846.30
2001 08 06 12	50457.61	0.00	417.64	0.00	30.88	17.40	1988.43
2001 08 07 12	50111.99	0.00	442.39	0.00	33.23	17.87	2045.29
2001 08 08 12	50111.99	0.00	419.04	0.00	34.68	20.09	2333.91
2001 08 09 12	50111.99	0.00	414.51	0.00	35.02	20.51	2401.08
2001 08 10 12	49766.40	7.60	294.76	0.00	33.92	21.09	2493.61
2001 08 11 12	49766.40	13.37	264.42	0.00	29.20	18.46	2127.82
2001 08 12 12	49420.80	0.00	297.55	0.00	26.38	17.95	2058.36
2001 08 13 12	49420.80	0.00	314.91	0.00	27.03	18.07	2075.41
2001 08 14 12	49420.80	0.00	437.32	0.00	29.31	15.18	1725.21
2001 08 15 12	49075.19	0.00	489.30	0.00	28.08	10.89	1310.93
2001 08 16 12	49075.19	0.00	459.47	0.00	28.81	13.20	1512.43
2001 08 17 12	48729.60	27.72	286.92	0.00	29.01	16.99	1918.98
2001 08 18 12	48729.60	0.00	400.90	0.00	26.56	14.13	1611.75
2001 08 19 12	48384.01	0.00	395.43	0.00	26.79	14.53	1659.58
2001 08 20 12	48384.01	30.09	287.74	0.00	27.22	15.36	1744.24
2001 08 21 12	48062.08	0.00	319.37	0.00	24.44	15.39	1746.54
2001 08 22 12	48038.42	0.00	423.04	0.00	25.51	12.32	1432.50
2001 08 23 12	48038.42	0.00	390.27	0.00	25.54	13.78	1573.92
2001 08 24 12	47692.81	5.49	190.07	0.00	22.06	15.26	1736.48
2001 08 25 12	47692.81	0.00	469.22	0.00	26.68	10.54	1283.13
2001 08 26 12	47347.21	0.00	432.91	0.00	27.11	13.04	1496.03
2001 08 27 12	47347.21	7.92	229.78	0.00	26.82	18.00	2080.00
2001 08 28 12	47001.60	0.00	393.49	0.00	26.58	14.51	1656.34
2001 08 29 12	47001.60	3.86	303.28	0.00	26.81	13.83	1579.45
2001 08 30 12	46655.98	0.00	416.21	0.00	25.46	12.02	1401.25
2001 08 31 12	46655.98	0.00	420.32	0.00	27.23	13.14	1511.41
2001 09 01 12	46310.41	31.46	283.79	0.00	25.69	13.78	1575.87
2001 09 02 12	46310.41	0.00	447.94	0.00	21.90	6.97	1006.61
2001 09 03 12	45964.80	0.00	444.78	0.00	23.10	7.80	1064.05
2001 09 04 12	45964.80	0.00	431.84	0.00	26.25	11.00	1320.00
2001 09 05 12	45964.80	0.00	427.33	0.00	25.03	10.13	1250.43
2001 09 06 12	45619.20	0.00	446.94	0.00	23.54	7.50	1042.40
2001 09 07 12	45619.20	0.00	452.61	0.00	26.11	8.85	1148.08
2001 09 08 12	45273.60	0.00	428.31	0.00	28.48	12.18	1414.79
2001 09 09 12	45273.60	0.00	376.47	0.00	28.38	15.00	1720.00
2001 09 10 12	44927.99	0.00	319.40	0.00	27.34	16.57	1885.23
2001 09 11 12	44927.99	5.40	287.20	0.00	23.82	10.48	1278.10
2001 09 12 12	44582.39	0.00	415.34	0.00	24.11	8.68	1134.16
2001 09 13 12	44582.39	0.00	415.18	0.00	25.64	9.73	1218.68
2001 09 14 12	44236.79	15.92	307.77	0.00	25.08	9.32	1185.83
2001 09 15 12	44236.79	0.00	395.05	0.00	17.27	3.57	792.15
2001 09 16 12	43891.20	0.00	405.19	0.00	18.19	3.61	795.17
2001 09 17 12	43891.20	0.00	424.55	0.00	21.30	4.69	858.92
2001 09 18 12	43545.60	0.00	415.04	0.00	23.27	6.72	980.62
2001 09 19 12	43545.60	0.00	362.83	0.00	23.87	10.28	1262.10
2001 09 20 12	43199.99	2.23	281.96	0.00	23.26	12.48	1438.21
2001 09 21 12	43199.99	14.43	215.63	0.00	21.13	11.06	1325.60
2001 09 22 12	42854.41	0.00	313.07	0.00	23.22	11.84	1387.14
2001 09 23 12	42854.41	0.00	349.87	0.00	22.44	9.09	1167.52
2001 09 24 12	42508.80	0.00	338.84	0.00	22.07	9.30	1184.33
2001 09 25 12	42508.80	48.51	187.52	0.00	18.72	10.07	1245.83
2001 09 26 12	42163.20	2.00	262.65	0.00	14.06	5.19	889.05
2001 09 27 12	42163.20	0.00	208.24	0.00	13.47	6.61	968.59
2001 09 28 12	41817.61	1.99	240.69	0.00	13.87	5.89	925.96
2001 09 29 12	41817.61	1.00	234.92	0.00	14.88	7.07	1005.56
2001 09 30 12	41471.99	0.00	365.52	0.00	17.04	3.03	761.29
2001 10 01 12	41471.99	0.00	378.36	0.00	18.08	2.81	749.90
2001 10 02 12	41126.39	0.00	396.63	0.00	21.45	3.80	802.25
2001 10 03 12	41126.39	0.00	338.55	0.00	23.50	9.68	1214.42
2001 10 04 12	40780.80	0.00	350.80	0.00	25.36	10.23	1258.24
2001 10 05 12	40780.80	0.00	345.35	0.00	24.84	9.98	1238.64
2001 10 06 12	40435.20	2.91	309.89	0.00	22.56	7.31	1025.47
2001 10 07 12	40435.20	0.00	305.72	0.00	12.88	1.59	686.97
2001 10 08 12	40435.20	0.00	326.21	0.00	9.75	-2.49	510.33
2001 10 09 12	40089.61	0.00	364.82	0.00	11.85	-3.30	479.44
2001 10 10 12	40089.61	0.00	385.53	0.00	16.87	-1.47	560.00
2001 10 11 12	39744.00	0.00	380.16	0.00	22.06	2.75	740.19
2001 10 12 12	39744.00	0.00	362.42	0.00	22.97	5.02	881.76
2001 10 13 12	39398.40	2.44	229.63	0.00	19.93	9.53	1202.64
2001 10 14 12	39398.40	0.00	235.73	0.00	23.72	13.93	1594.01
2001 10 15 12	39052.79	25.81	225.00	0.00	19.22	6.35	951.91
2001 10 16 12	39052.79	0.00	324.93	0.00	16.58	2.27	718.14
2001 10 17 12	38707.19	11.00	187.02	0.00	13.83	4.00	800.00
2001 10 18 12	38707.19	0.00	266.81	0.00	9.35	-0.90	576.52
2001 10 19 12	38361.60	0.00	325.92	0.00	14.36	-0.14	600.00
2001 10 20 12	38361.60	0.00	339.89	0.00	18.65	1.82	705.40
2001 10 21 12	38337.93	0.00	323.22	0.00	19.99	4.09	808.42
2001 10 22 12	38016.00	0.00	324.21	0.00	22.40	5.51	920.00
2001 10 23 12	38016.00	1.88	213.76	0.00	15.92	6.98	999.54
2001 10 24 12	37670.41	16.28	198.51	0.00	21.44	8.97	1157.73
2001 10 25 12	37670.41	0.73	222.65	0.00	22.65	12.41	1433.00
2001 10 26 12	37324.80	0.00	227.62	0.00	14.40	4.51	846.23
2001 10 27 12	37324.80	1.03	123.53	0.00	6.08	1.18	666.40
2001 10 28 12	36979.21	1.41	181.28	0.00	6.87	-0.65	587.66
2001 10 29 12	36979.21	0.00	267.55	0.00	8.86	-3.51	478.81
2001 10 30 12	36979.21	0.00	307.89	0.00	15.20	-1.50	559.97
2001 10 31 12	36633.59	0.00	197.16	0.00	12.13	3.37	788.46
2001 11 01 12	36633.59	0.00	244.92	0.00	13.31	1.87	709.29
2001 11 02 12	36288.00	0.00	295.14	0.00	20.03	3.33	786.24
2001 11 03 12	36288.00	2.00	264.62	0.00	20.96	6.78	982.01
2001 11 04 12	36288.00	0.00	282.56	0.00	16.24	0.90	646.93
2001 11 05 12	35942.40	0.00	271.50	0.00	15.75	1.27	663.18
2001 11 06 12	35942.40	0.00	200.04	0.00	8.82	-0.37	598.13
2001 11 07 12	35596.80	0.00	256.81	0.00	13.17	-0.18	598.81
2001 11 08 12	35596.80	0.00	233.07	0.00	16.42	4.44	835.46
2001 11 09 12	35596.80	0.00	271.93	0.00	18.09	2.40	726.74
2001 11 10 12	35251.20	0.00	231.39	0.00	10.40	-0.98	563.11
2001 11 11 12	35251.20	0.00	262.99	0.00	14.37	-0.13	600.11
2001 11 12 12	35251.20	0.00	212.78	0.00	7.21	-3.00	480.00
2001 11 13 12	34905.61	0.00	255.31	0.00	9.18	-4.62	440.00
2001 11 14 12	34905.61	0.00	275.89	0.00	12.85	-4.11	440.00
2001 11 15 12	34905.61	0.00	278.23	0.00	16.77	-1.69	544.84
2001 11 16 12	34560.01	0.00	214.81	0.00	18.48	6.43	954.22
2001 11 17 12	34560.01	0.00	260.21	0.00	17.07	0.23	621.96
2001 11 18 12	34560.01	0.00	247.60	0.00	13.10	-1.96	523.83
2001 11 19 12	34214.39	0.00	254.96	0.00	15.16	-1.27	560.00
2001 11 20 12	34214.39	2.67	205.57	0.00	16.64	0.52	631.98
2001 11 21 12	34214.39	0.30	189.82	0.00	5.60	-4.36	443.60
2001 11 22 12	33868.81	0.00	224.31	0.00	7.74	-5.19	422.79
2001 11 23 12	33868.81	0.00	239.62	0.00	12.01	-3.17	480.56
2001 11 24 12	33868.81	0.00	234.83	0.00	12.97	-2.19	520.00
2001 11 25 12	33868.81	11.48	158.01	0.00	15.37	2.00	720.00
2001 11 26 12	33523.20	29.92	139.08	0.00	14.72	3.34	778.59
2001 11 27 12	33523.20	0.00	167.65	0.00	11.95	2.05	706.06
2001 11 28 12	33523.20	2.55	95.52	0.00	10.77	4.49	839.35
2001 11 29 12	33523.20	8.73	71.39	0.00	11.26	6.01	930.20
2001 11 30 12	33177.61	2.11	97.97	0.00	14.72	9.02	1161.57
2001 12 01 12	33177.61	12.47	120.06	0.00	16.01	6.42	964.48
2001 12 02 12	33177.61	0.00	127.32	0.00	10.35	3.38	780.50
2001 12 03 12	33177.61	0.00	206.29	0.00	10.92	-1.72	542.42
2001 12 04 12	33177.61	0.00	223.84	0.00	14.00	-1.00	560.00
2001 12 05 12	32908.44	0.91	218.02	0.00	17.26	2.39	722.47
2001 12 06 12	32832.00	0.00	196.19	0.00	19.60	6.53	962.59
2001 12 07 12	32832.00	1.00	153.94	0.00	14.90	5.71	919.75
2001 12 08 12	32832.00	0.00	184.94	0.00	9.58	-1.59	552.91
2001 12 09 12	32832.00	10.58	67.08	0.00	3.50	-1.19	560.00
2001 12 10 12	32832.00	0.00	177.33	0.00	5.41	-4.68	433.22
2001 12 11 12	32832.00	0.00	167.98	0.00	6.38	-2.99	482.36
2001 12 12 12	32832.00	0.00	197.02	0.00	8.39	-3.51	478.81
2001 12 13 12	32808.33	3.04	134.25	0.00	8.44	-2.00	520.15
2001 12 14 12	32486.39	1.07	100.00	0.00	11.81	6.51	960.95
2001 12 15 12	32486.39	6.35	144.40	0.00	12.54	1.11	665.19
2001 12 16 12	32486.39	0.00	180.60	0.00	4.92	-4.94	428.52
2001 12 17 12	32486.39	4.00	94.64	0.00	3.34	-2.96	483.25
2001 12 18 12	32486.39	16.79	88.06	0.00	6.96	1.23	667.96
2001 12 19 12	32486.39	1.00	118.11	0.00	6.27	0.73	640.39
2001 12 20 12	32486.39	0.76	168.18	0.00	7.56	-0.65	584.46
2001 12 21 12	32486.39	0.00	75.99	0.00	2.10	-1.13	567.11
2001 12 22 12	32486.39	0.66	182.50	0.00	2.36	-5.75	400.18
2001 12 23 12	32486.39	0.00	193.54	0.00	3.50	-5.17	425.20
2001 12 24 12	32486.39	4.64	120.87	0.00	4.09	-3.07	480.74
2001 12 25 12	32486.39	0.07	166.90	0.00	0.10	-6.99	359.22
2001 12 26 12	32486.39	0.00	138.93	0.00	-3.17	-8.74	311.86
2001 12 27 12	32486.39	0.00	164.19	0.00	-2.65	-9.31	302.62
2001 12 28 12	32562.83	0.00	161.27	0.00	-2.00	-8.51	317.06
2001 12 29 12	32808.33	2.45	135.18	0.00	-1.61	-7.18	360.00
2001 12 30 12	32832.00	0.00	176.13	0.00	-3.56	-9.91	285.39
2001 12 31 12	32832.00	0.00	130.56	0.00	-6.13	-10.54	273.02
2002 01 01 12	32832.00	0.00	175.57	0.00	-4.56	-11.49	240.44
2002 01 02 12	32832.00	0.00	207.06	0.00	-2.78	-11.33	261.18
2002 01 03 12	32832.00	0.00	249.19	0.00	-0.70	-12.69	230.57
2002 01 04 12	32832.00	0.00	233.89	0.00	0.48	-10.00	280.00
2002 01 05 12	32832.00	0.00	151.54	0.00	0.68	-5.02	423.12
2002 01 06 12	33177.61	0.00	194.79	0.00	3.31	-4.56	435.73
2002 01 07 12	33177.61	14.87	80.32	0.00	1.46	-2.58	513.29
2002 01 08 12	33177.61	1.51	168.08	0.00	-0.24	-7.19	355.67
2002 01 09 12	33177.61	0.00	202.59	0.00	1.00	-6.73	366.24
2002 01 10 12	33177.61	0.00	202.36	0.00	7.61	-0.66	586.93
2002 01 11 12	33499.53	2.11	177.60	0.00	8.54	0.57	640.00
2002 01 12 12	33523.20	0.00	142.46	0.00	4.02	-1.43	551.13
2002 01 13 12	33523.20	0.00	175.97	0.00	4.97	-2.00	520.00
2002 01 14 12	33523.20	0.00	190.05	0.00	2.43	-5.08	421.04
2002 01 15 12	33599.64	0.00	195.75	0.00	5.10	-2.72	501.02
2002 01 16 12	33868.81	0.00	108.62	0.00	2.76	-1.20	560.54
2002 01 17 12	33868.81	0.21	144.46	0.00	2.96	-2.35	512.24
2002 01 18 12	33868.81	0.00	196.93	0.00	2.08	-5.46	410.58
2002 01 19 12	34190.73	0.00	181.44	0.00	-1.59	-8.24	326.71
2002 01 20 12	34214.39	6.60	171.80	0.00	-2.15	-9.99	280.00
2002 01 21 12	34214.39	0.00	267.86	0.00	0.79	-8.97	320.00
2002 01 22 12	34214.39	2.00	220.54	0.00	4.36	-3.00	480.00
2002 01 23 12	34560.01	0.00	276.22	0.00	7.87	-2.50	520.00
2002 01 24 12	34560.01	2.29	164.84	0.00	8.60	2.26	720.00
2002 01 25 12	34560.01	3.91	198.79	0.00	9.05	-2.78	502.52
2002 01 26 12	34905.61	0.00	269.82	0.00	7.82	-3.82	454.64
2002 01 27 12	34905.61	0.00	296.20	0.00	12.14	-3.47	473.03
2002 01 28 12	34905.61	0.00	303.03	0.00	15.50	-2.22	521.14
2002 01 29 12	35251.20	0.00	298.84	0.00	16.01	0.06	610.34
2002 01 30 12	35251.20	5.60	188.34	0.00	16.29	5.84	925.13
2002 01 31 12	35327.63	6.56	183.24	0.00	9.30	0.11	615.26
2002 02 01 12	35596.80	6.45	163.89	0.00	8.48	0.81	640.00
2002 02 02 12	35596.80	4.64	243.66	0.00	11.74	-5.27	418.07
2002 02 03 12	35942.40	0.00	254.53	0.00	2.06	-6.50	361.98
2002 02 04 12	35942.40	0.00	285.67	0.00	4.13	-6.39	369.19
2002 02 05 12	35942.40	0.45	304.47	0.00	-0.83	-11.66	254.88
2002 02 06 12	36288.00	0.00	286.44	0.00	0.77	-9.02	306.29
2002 02 07 12	36288.00	0.00	247.74	0.00	4.33	-3.73	466.36
2002 02 08 12	36633.59	0.00	298.31	0.00	9.68	-1.60	551.51
2002 02 09 12	36633.59	0.00	326.20	0.00	9.44	-4.16	440.00
2002 02 10 12	36633.59	0.00	306.84	0.00	9.10	-2.59	511.32
2002 02 11 12	36979.21	21.59	225.80	0.00	6.53	-4.64	433.91
2002 02 12 12	36979.21	0.00	257.29	0.00	1.36	-7.05	357.23
2002 02 13 12	37324.80	0.00	304.83	0.00	5.61	-5.33	415.78
2002 02 14 12	37324.80	0.00	323.77	0.00	0.45	-11.42	258.48
2002 02 15 12	37646.73	0.00	353.68	0.00	5.72	-9.22	300.64
2002 02 16 12	37670.41	0.00	308.93	0.00	9.91	-1.80	535.87
2002 02 17 12	37670.41	0.67	263.72	0.00	7.17	-1.89	534.68
2002 02 18 12	38016.00	0.00	307.84	0.00	2.39	-8.69	315.26
2002 02 19 12	38016.00	0.00	356.91	0.00	5.92	-8.98	307.51
2002 02 20 12	38361.60	0.00	363.80	0.00	11.12	-4.92	434.51
2002 02 21 12	38361.60	4.20	184.42	0.00	12.24	3.49	798.75
2002 02 22 12	38707.19	0.44	231.19	0.00	7.70	0.06	613.65
2002 02 23 12	38707.19	0.00	232.01	0.00	3.05	-4.44	438.81
2002 02 24 12	39052.79	0.00	352.33	0.00	5.45	-7.92	337.92
2002 02 25 12	39052.79	0.00	393.54	0.00	12.05	-6.03	389.47
2002 02 26 12	39052.79	0.00	381.05	0.00	15.24	-1.39	559.85
2002 02 27 12	39398.40	5.00	302.26	0.00	10.02	-6.18	387.61
2002 02 28 12	39398.40	0.37	184.53	0.00	-1.84	-6.98	356.56
2002 03 01 12	39744.00	0.00	305.44	0.00	0.73	-8.31	321.98
2002 03 02 12	39744.00	0.00	362.66	0.00	5.69	-6.06	395.47
2002 03 03 12	40089.61	14.32	208.05	0.00	8.73	0.53	633.07
2002 03 04 12	40089.61	0.00	442.04	0.00	8.51	-9.28	301.08
2002 03 05 12	40435.20	0.00	339.39	0.00	-3.63	-13.60	218.12
2002 03 06 12	40435.20	0.00	408.66	0.00	3.77	-9.99	283.98
2002 03 07 12	40780.80	0.00	434.58	0.00	14.87	-2.15	520.81
2002 03 08 12	40780.80	0.00	409.70	0.00	15.13	-1.22	560.00
2002 03 09 12	41126.39	0.00	420.65	0.00	19.20	1.00	640.00
2002 03 10 12	41126.39	4.46	329.97	0.00	17.30	-3.56	468.28
2002 03 11 12	41471.99	0.00	265.30	0.00	1.09	-6.89	364.62
2002 03 12 12	41471.99	0.00	338.51	0.00	4.93	-5.87	397.23
2002 03 13 12	41817.61	0.00	275.19	0.00	8.94	0.59	637.39
2002 03 14 12	41817.61	0.00	271.12	0.00	10.09	1.93	708.29
2002 03 15 12	42163.20	0.00	409.39	0.00	19.29	3.63	792.33
2002 03 16 12	42163.20	13.19	273.09	0.00	20.83	7.42	1033.95
2002 03 17 12	42508.80	1.46	376.33	0.00	8.62	-3.90	460.43
2002 03 18 12	42508.80	6.11	152.13	0.00	2.73	-2.95	497.79
2002 03 19 12	42854.41	0.87	176.37	0.00	5.31	0.45	628.49
2002 03 20 12	42854.41	6.36	146.57	0.00	6.01	0.66	631.39
2002 03 21 12	43199.99	11.00	233.11	0.00	7.64	-1.21	559.20
2002 03 22 12	43199.99	3.73	402.71	0.00	8.88	-10.01	281.53
2002 03 23 12	43199.99	0.00	345.63	0.00	-0.99	-9.58	295.07
2002 03 24 12	43545.60	0.00	451.01	0.00	7.69	-5.20	416.78
2002 03 25 12	43545.60	1.63	353.22	0.00	7.68	-1.54	549.00
2002 03 26 12	43891.20	7.21	101.10	0.00	1.01	-2.04	529.51
2002 03 27 12	43891.20	37.31	158.14	0.00	4.72	-0.43	591.78
2002 03 28 12	44236.79	0.00	371.16	0.00	4.33	-5.32	413.07
2002 03 29 12	44236.79	0.00	472.10	0.00	11.76	-3.54	472.89
2002 03 30 12	44582.39	1.11	428.41	0.00	17.98	4.59	846.97
2002 03 31 12	44582.39	0.00	443.02	0.00	15.76	1.75	696.11
2002 04 01 12	44927.99	5.26	266.81	0.00	12.93	3.28	782.37
2002 04 02 12	44927.99	0.00	406.85	0.00	10.90	-0.63	582.08
2002 04 03 12	45273.60	0.00	461.85	0.00	17.39	2.40	724.80
2002 04 04 12	45273.60	0.00	399.92	0.00	7.64	-3.17	483.26
2002 04 05 12	45619.20	0.00	406.30	0.00	5.76	-5.05	425.64
2002 04 06 12	45619.20	4.17	282.72	0.00	4.35	-4.97	427.86
2002 04 07 12	45964.80	0.00	471.93	0.00	5.75	-7.39	349.84
2002 04 08 12	45964.80	0.00	445.21	0.00	11.59	-0.27	599.84
2002 04 09 12	46310.41	1.87	424.64	0.00	16.86	5.58	919.26
2002 04 10 12	46310.41	4.75	349.53	0.00	17.82	4.17	824.98
2002 04 11 12	46655.98	0.00	510.44	0.00	17.74	0.69	639.76
2002 04 12 12	46655.98	0.00	502.93	0.00	18.87	2.22	707.76
2002 04 13 12	47001.60	0.00	381.32	0.00	18.52	8.49	1119.37
2002 04 14 12	47001.60	9.87	304.92	0.00	18.15	7.29	1030.72
2002 04 15 12	47347.21	20.35	316.65	0.00	21.49	9.73	1218.76
2002 04 16 12	47347.21	0.00	449.75	0.00	26.23	12.50	1440.00
2002 04 17 12	47347.21	0.00	486.15	0.00	30.43	12.71	1442.92
2002 04 18 12	47692.81	0.00	468.92	0.00	30.96	14.24	1603.10
2002 04 19 12	47692.81	0.00	458.47	0.00	29.89	14.00	1591.41
2002 04 20 12	48038.42	2.37	424.98	0.00	28.14	11.94	1388.16
2002 04 21 12	48038.42	3.80	305.71	0.00	15.87	4.72	860.70
2002 04 22 12	48384.01	3.07	182.84	0.00	8.11	2.32	721.30
2002 04 23 12	48384.01	0.00	408.79	0.00	9.59	-0.93	572.11
2002 04 24 12	48729.60	0.00	500.61	0.00	12.41	-2.72	501.32
2002 04 25 12	48729.60	2.11	397.76	0.00	16.18	4.13	824.33
2002 04 26 12	48753.27	4.44	330.45	0.00	12.84	0.32	625.57
2002 04 27 12	49075.19	0.00	504.61	0.00	14.32	-1.77	541.91
2002 04 28 12	49075.19	12.94	296.98	0.00	16.33	5.38	894.61
2002 04 29 12	49420.80	13.60	371.87	0.00	20.14	3.93	811.69
2002 04 30 12	49420.80	1.28	250.37	0.00	8.49	2.44	731.03
2002 05 01 12	49766.40	4.60	354.16	0.00	15.29	1.32	671.91
2002 05 02 12	49766.40	13.14	314.26	0.00	18.35	6.53	962.49
2002 05 03 12	49766.40	5.10	415.16	0.00	23.88	3.30	775.43
2002 05 04 12	50111.99	0.00	493.75	0.00	13.35	-1.66	544.12
2002 05 05 12	50111.99	0.00	521.60	0.00	18.72	1.03	645.84
2002 05 06 12	50457.61	0.00	511.14	0.00	22.27	4.56	844.56
2002 05 07 12	50457.61	2.20	316.25	0.00	22.72	12.83	1471.83
2002 05 08 12	50457.61	0.00	417.16	0.00	21.72	9.26	1180.79
2002 05 09 12	50803.19	21.18	259.93	0.00	19.07	9.44	1194.92
2002 05 10 12	50803.19	8.72	249.55	0.00	17.43	8.49	1119.06
2002 05 11 12	51072.36	0.00	505.62	0.00	18.79	2.65	741.07
2002 05 12 12	51148.80	7.30	310.55	0.00	18.75	7.08	1006.22
2002 05 13 12	51148.80	29.22	225.82	0.00	18.61	10.72	1297.25
2002 05 14 12	51494.39	24.79	324.67	0.00	17.39	5.19	887.10
2002 05 15 12	51494.39	7.04	274.98	0.00	12.96	3.48	797.49
2002 05 16 12	51494.39	0.00	491.83	0.00	20.02	4.91	872.62
2002 05 17 12	51839.99	1.28	436.31	0.00	22.98	10.30	1263.62
2002 05 18 12	51839.99	24.43	382.57	0.00	18.02	2.23	716.34
2002 05 19 12	51839.99	2.00	414.45	0.00	10.30	-0.30	598.46
2002 05 20 12	52185.61	0.00	461.20	0.00	11.33	-0.94	571.41
2002 05 21 12	52185.61	0.00	476.36	0.00	10.88	-2.04	529.43
2002 05 22 12	52185.61	0.00	509.62	0.00	14.44	-0.73	583.53
2002 05 23 12	52209.29	0.00	543.52	0.00	20.03	1.50	680.00
2002 05 24 12	52531.18	0.00	513.13	0.00	24.44	7.35	1028.15
2002 05 25 12	52531.18	1.29	513.97	0.00	23.29	6.23	951.29
2002 05 26 12	52531.18	1.24	391.03	0.00	20.19	9.33	1186.53
2002 05 27 12	52800.38	0.00	468.80	0.00	24.16	9.66	1213.15
2002 05 28 12	52876.81	0.00	458.18	0.00	26.65	12.20	1418.02
2002 05 29 12	52876.81	11.03	248.90	0.00	24.77	15.52	1761.52
2002 05 30 12	52876.81	2.54	286.79	0.00	25.28	15.92	1794.58
2002 05 31 12	52900.48	11.84	306.58	0.00	27.54	15.23	1738.34
2002 06 01 12	53222.39	4.66	331.88	0.00	27.95	14.08	1604.83
2002 06 02 12	53222.39	0.00	430.22	0.00	26.71	13.77	1581.62
2002 06 03 12	53222.39	0.00	499.27	0.00	22.39	6.87	998.94
2002 06 04 12	53222.39	0.00	427.34	0.00	21.35	9.47	1197.39
2002 06 05 12	53222.39	21.13	262.11	0.00	26.52	16.91	1913.20
2002 06 06 12	53568.01	19.73	316.45	0.00	28.25	15.74	1784.25
2002 06 07 12	53568.01	37.99	292.58	0.00	19.37	9.17	1173.27
2002 06 08 12	53568.01	0.00	476.98	0.00	23.24	9.07	1165.84
2002 06 09 12	53568.01	0.00	472.12	0.00	26.07	11.50	1360.11
2002 06 10 12	53568.01	0.00	459.32	0.00	28.31	14.00	1600.17
2002 06 11 12	53568.01	0.00	433.11	0.00	29.25	15.95	1795.71
2002 06 12 12	53568.01	1.09	350.04	0.00	28.77	18.60	2136.08
2002 06 13 12	53591.68	4.12	248.10	0.00	25.82	16.68	1885.57
2002 06 14 12	53837.18	8.77	234.55	0.00	23.10	14.80	1687.66
2002 06 15 12	53913.62	34.17	181.21	0.00	18.93	12.99	1496.47
2002 06 16 12	53913.62	5.76	244.87	0.00	19.97	11.78	1382.70
2002 06 17 12	53913.62	0.00	418.81	0.00	20.96	9.90	1232.22
2002 06 18 12	53913.62	1.11	496.89	0.00	22.91	8.12	1090.00
2002 06 19 12	53913.62	0.00	488.55	0.00	24.76	10.04	1242.92
2002 06 20 12	53913.62	0.00	482.22	0.00	27.29	12.35	1427.87
2002 06 21 12	53913.62	0.00	457.44	0.00	27.77	14.00	1600.15
2002 06 22 12	53913.62	0.00	456.77	0.00	28.83	15.02	1709.19
2002 06 23 12	53913.62	0.00	443.32	0.00	29.55	16.32	1850.89
2002 06 24 12	53913.62	0.00	414.70	0.00	30.59	18.48	2128.68
2002 06 25 12	53913.62	9.05	325.50	0.00	30.81	17.74	2033.42
2002 06 26 12	53913.62	0.00	418.67	0.00	30.75	18.44	2125.65
2002 06 27 12	53913.62	0.00	348.71	0.00	29.54	20.01	2321.89
2002 06 28 12	53913.62	15.43	275.43	0.00	27.57	17.72	2034.53
2002 06 29 12	53591.68	0.00	466.44	0.00	27.13	13.41	1540.88
2002 06 30 12	53568.01	0.00	456.53	0.00	27.79	14.40	1642.75
2002 07 01 12	53568.01	0.00	443.58	0.00	29.11	16.05	1821.93
2002 07 02 12	53568.01	0.00	421.80	0.00	31.11	18.55	2128.16
2002 07 03 12	53568.01	0.00	436.69	0.00	32.88	19.32	2242.80
2002 07 04 12	53568.01	0.00	427.51	0.00	32.53	19.44	2257.58
2002 07 05 12	53568.01	0.00	476.15	0.00	31.41	16.01	1808.23
2002 07 06 12	53568.01	0.00	484.14	0.00	26.19	11.52	1361.65
2002 07 07 12	53491.57	0.00	487.17	0.00	26.18	11.20	1336.00
2002 07 08 12	53222.39	0.00	491.21	0.00	28.39	12.65	1454.22
2002 07 09 12	53222.39	0.00	436.83	0.00	30.30	16.94	1920.95
2002 07 10 12	53222.39	9.92	251.21	0.00	26.58	17.57	2011.63
2002 07 11 12	53222.39	0.00	523.60	0.00	24.88	7.86	1068.96
2002 07 12 12	53222.39	0.00	518.25	0.00	24.15	7.44	1035.83
2002 07 13 12	52876.81	0.00	497.82	0.00	26.15	10.10	1247.86
2002 07 14 12	52876.81	0.00	408.98	0.00	26.30	14.33	1628.58
2002 07 15 12	52876.81	0.00	439.00	0.00	28.45	14.67	1675.16
2002 07 16 12	52876.81	0.00	456.16	0.00	30.33	15.13	1719.65
2002 07 17 12	52531.18	0.00	459.20	0.00	31.16	15.44	1755.09
2002 07 18 12	52531.18	0.00	392.17	0.00	32.26	19.46	2272.88
2002 07 19 12	52531.18	4.62	270.16	0.00	29.75	18.69	2160.04
2002 07 20 12	52531.18	9.01	273.10	0.00	29.43	18.33	2106.11
2002 07 21 12	52185.61	0.00	418.36	0.00	28.92	15.84	1797.77
2002 07 22 12	52185.61	0.00	409.49	0.00	31.87	18.57	2136.90
2002 07 23 12	52185.61	0.00	367.85	0.00	32.72	20.94	2470.62
2002 07 24 12	51839.99	11.18	329.94	0.00	29.15	14.93	1699.28
2002 07 25 12	51839.99	0.00	384.79	0.00	25.46	14.21	1619.84
2002 07 26 12	51839.99	0.00	250.94	0.00	21.95	15.25	1731.61
2002 07 27 12	51494.39	11.51	136.11	0.00	21.52	16.81	1907.46
2002 07 28 12	51494.39	5.87	239.80	0.00	28.64	19.35	2249.75
2002 07 29 12	51494.39	2.00	353.76	0.00	31.61	20.79	2454.42
2002 07 30 12	51148.80	2.00	357.92	0.00	31.83	20.83	2453.55
2002 07 31 12	51148.80	0.98	396.04	0.00	30.43	17.17	1958.16
2002 08 01 12	51148.80	1.24	439.21	0.00	32.34	17.68	2025.57
2002 08 02 12	50803.19	0.00	432.64	0.00	33.56	18.86	2178.79
2002 08 03 12	50803.19	3.69	314.29	0.00	33.24	19.19	2231.00
2002 08 04 12	50803.19	0.00	458.31	0.00	32.69	16.71	1896.30
2002 08 05 12	50457.61	0.00	429.33	0.00	32.49	18.08	2086.31
2002 08 06 12	50457.61	10.50	335.14	0.00	28.21	13.80	1576.56
2002 08 07 12	50111.99	0.00	457.98	0.00	23.63	9.54	1203.58
2002 08 08 12	50111.99	0.00	483.18	0.00	24.40	8.69	1134.92
2002 08 09 12	50111.99	0.00	493.88	0.00	26.28	9.16	1172.67
2002 08 10 12	49766.40	0.00	499.47	0.00	28.48	10.27	1261.67
2002 08 11 12	49766.40	0.00	482.75	0.00	31.33	13.42	1547.46
2002 08 12 12	49420.80	0.00	462.12	0.00	32.74	15.73	1782.19
2002 08 13 12	49420.80	0.82	442.87	0.00	32.93	16.60	1888.29
2002 08 14 12	49420.80	1.05	402.48	0.00	33.29	17.97	2074.03
2002 08 15 12	49075.19	0.00	409.16	0.00	33.60	19.00	2200.00
2002 08 16 12	49075.19	6.47	263.38	0.00	31.34	20.00	2320.00
2002 08 17 12	48729.60	1.84	300.82	0.00	30.71	20.16	2350.20
2002 08 18 12	48729.60	0.98	340.00	0.00	31.63	20.20	2352.24
2002 08 19 12	48384.01	0.00	394.09	0.00	31.02	17.65	2025.10
2002 08 20 12	48384.01	1.00	340.65	0.00	28.67	17.90	2063.46
2002 08 21 12	48062.08	0.00	464.28	0.00	27.95	11.28	1342.11
2002 08 22 12	48038.42	0.00	427.75	0.00	30.25	15.07	1714.23
2002 08 23 12	48038.42	9.29	276.58	0.00	31.16	18.52	2122.45
2002 08 24 12	47692.81	10.66	130.03	0.00	23.46	18.42	2121.03
2002 08 25 12	47692.81	5.96	248.82	0.00	26.63	16.18	1834.97
2002 08 26 12	47347.21	0.00	418.92	0.00	26.75	12.29	1430.76
2002 08 27 12	47347.21	0.00	405.90	0.00	27.69	13.52	1549.74
2002 08 28 12	47001.60	0.00	361.72	0.00	26.26	14.22	1620.41
2002 08 29 12	47001.60	1.33	265.37	0.00	20.27	12.32	1431.49
2002 08 30 12	46655.98	0.00	297.19	0.00	20.61	11.62	1370.12
2002 08 31 12	46655.98	0.00	403.97	0.00	25.28	11.48	1358.15
2002 09 01 12	46310.41	0.00	377.75	0.00	25.43	12.80	1470.74
2002 09 02 12	46310.41	2.06	193.58	0.00	20.00	14.27	1623.87
2002 09 03 12	45964.80	0.00	352.92	0.00	25.56	14.16	1612.85
2002 09 04 12	45964.80	0.00	409.32	0.00	30.69	15.50	1760.11
2002 09 05 12	45964.80	0.00	421.33	0.00	26.91	11.72	1377.70
2002 09 06 12	45619.20	0.00	452.13	0.00	26.30	8.94	1133.59
2002 09 07 12	45619.20	0.00	450.26	0.00	27.66	9.90	1206.33
2002 09 08 12	45273.60	0.00	460.12	0.00	30.03	10.47	1233.35
2002 09 09 12	45273.60	0.00	468.27	0.00	31.79	10.40	1218.95
2002 09 10 12	44927.99	0.00	468.21	0.00	33.55	11.00	1263.54
2002 09 11 12	44927.99	0.00	431.77	0.00	32.15	13.50	1522.03
2002 09 12 12	44582.39	0.00	421.85	0.00	22.68	6.79	990.52
2002 09 13 12	44582.39	0.00	447.23	0.00	24.88	6.38	949.34
2002 09 14 12	44236.79	0.00	453.06	0.00	28.05	8.05	964.22
2002 09 15 12	44236.79	0.00	278.61	0.00	27.55	17.50	2002.63
2002 09 16 12	43891.20	16.38	136.54	0.00	23.33	17.17	1958.39
2002 09 17 12	43891.20	0.00	345.41	0.00	25.10	12.38	1431.98
2002 09 18 12	43545.60	0.00	399.01	0.00	25.46	9.50	1169.11
2002 09 19 12	43545.60	0.00	361.79	0.00	25.53	11.53	1356.95
2002 09 20 12	43199.99	0.00	236.59	0.00	24.73	16.37	1859.46
2002 09 21 12	43199.99	0.00	242.31	0.00	26.77	18.02	2081.70
2002 09 22 12	42854.41	5.56	131.58	0.00	23.15	17.18	1958.38
2002 09 23 12	42854.41	25.31	284.45	0.00	24.83	9.46	1196.72
2002 09 24 12	42508.80	0.00	390.63	0.00	21.02	5.32	894.37
2002 09 25 12	42508.80	0.00	380.53	0.00	22.23	6.82	986.87
2002 09 26 12	42163.20	0.00	311.23	0.00	20.29	8.86	1148.58
2002 09 27 12	42163.20	30.92	108.11	0.00	16.23	11.44	1355.21
2002 09 28 12	41817.61	16.22	166.66	0.00	20.13	12.30	1424.40
2002 09 29 12	41817.61	0.00	375.61	0.00	20.47	5.00	877.00
2002 09 30 12	41471.99	0.00	362.21	0.00	21.29	6.42	964.10
2002 10 01 12	41471.99	0.00	321.65	0.00	23.95	10.96	1316.97
2002 10 02 12	41126.39	0.00	308.98	0.00	26.57	13.54	1562.94
2002 10 03 12	41126.39	0.00	246.88	0.00	26.00	16.00	1800.00
2002 10 04 12	40780.80	2.21	177.66	0.00	23.43	16.24	1840.28
2002 10 05 12	40780.80	3.00	138.72	0.00	22.08	15.11	1720.24
2002 10 06 12	40435.20	0.00	359.26	0.00	19.65	4.32	834.65
2002 10 07 12	40435.20	0.00	293.88	0.00	18.30	7.06	1004.44
2002 10 08 12	40435.20	0.00	362.42	0.00	16.37	1.10	661.95
2002 10 09 12	40089.61	0.00	323.03	0.00	14.13	1.78	694.70
2002 10 10 12	40089.61	0.00	251.48	0.00	15.00	6.17	933.92
2002 10 11 12	39744.00	12.56	115.18	0.00	14.94	9.86	1228.52
2002 10 12 12	39744.00	33.93	58.60	0.00	14.15	11.87	1389.90
2002 10 13 12	39398.40	3.29	103.87	0.00	15.68	11.48	1358.73
2002 10 14 12	39398.40	2.96	274.87	0.00	15.37	0.79	643.65
2002 10 15 12	39052.79	0.00	338.26	0.00	11.98	-0.49	589.47
2002 10 16 12	39052.79	9.64	201.04	0.00	11.54	2.48	720.00
2002 10 17 12	38707.19	17.01	152.17	0.00	10.62	4.20	828.31
2002 10 18 12	38707.19	2.49	244.47	0.00	9.76	0.59	630.62
2002 10 19 12	38361.60	0.00	287.86	0.00	11.42	1.61	688.85
2002 10 20 12	38361.60	3.84	236.59	0.00	12.15	0.36	624.07
2002 10 21 12	38337.93	0.00	306.47	0.00	11.70	0.39	623.78
2002 10 22 12	38016.00	0.00	333.69	0.00	11.84	-1.95	532.38
2002 10 23 12	38016.00	0.00	331.14	0.00	13.40	-0.55	595.92
2002 10 24 12	37670.41	0.00	282.58	0.00	8.30	-1.93	533.46
2002 10 25 12	37670.41	1.00	170.35	0.00	4.61	-0.76	580.27
2002 10 26 12	37324.80	20.00	147.52	0.00	8.87	2.44	727.97
2002 10 27 12	37324.80	1.00	194.85	0.00	12.60	6.00	920.00
2002 10 28 12	36979.21	0.00	225.84	0.00	10.28	2.49	732.11
2002 10 29 12	36979.21	0.00	281.26	0.00	7.56	-2.81	498.90
2002 10 30 12	36979.21	10.39	110.58	0.00	2.34	-2.26	515.45
2002 10 31 12	36633.59	7.00	123.19	0.00	2.51	-2.58	505.97
2002 11 01 12	36633.59	0.00	235.68	0.00	5.44	-2.34	515.54
2002 11 02 12	36288.00	3.65	168.39	0.00	5.19	-2.20	522.99
2002 11 03 12	36288.00	0.00	213.46	0.00	4.96	-1.99	530.80
2002 11 04 12	36288.00	0.00	251.22	0.00	6.12	-2.72	504.09
2002 11 05 12	35942.40	0.00	201.88	0.00	4.91	-1.61	546.76
2002 11 06 12	35942.40	9.60	129.14	0.00	5.83	0.38	626.41
2002 11 07 12	35596.80	1.00	179.45	0.00	6.37	0.79	647.98
2002 11 08 12	35596.80	0.00	276.38	0.00	9.25	-1.27	558.07
2002 11 09 12	35596.80	0.00	305.03	0.00	16.68	0.77	640.00
2002 11 10 12	35251.20	0.00	261.70	0.00	17.02	6.05	935.31
2002 11 11 12	35251.20	8.45	148.33	0.00	18.36	10.75	1299.64
2002 11 12 12	35251.20	0.00	252.25	0.00	15.53	4.69	855.14
2002 11 13 12	34905.61	8.64	105.34	0.00	8.18	3.37	780.14
2002 11 14 12	34905.61	0.00	221.78	0.00	9.08	0.82	640.00
2002 11 15 12	34905.61	0.00	268.17	0.00	13.75	1.30	664.07
2002 11 16 12	34560.01	5.00	170.87	0.00	10.97	1.72	694.06
2002 11 17 12	34560.01	19.00	75.87	0.00	4.80	1.38	677.21
2002 11 18 12	34560.01	5.47	106.30	0.00	4.40	-0.48	591.90
2002 11 19 12	34214.39	0.00	170.41	0.00	3.49	-2.40	514.00
2002 11 20 12	34214.39	1.00	197.12	0.00	5.73	-1.36	554.15
2002 11 21 12	34214.39	0.00	252.05	0.00	10.62	-0.42	600.00
2002 11 22 12	33868.81	2.00	168.13	0.00	7.44	1.61	689.00
2002 11 23 12	33868.81	3.59	154.94	0.00	5.54	-2.06	528.53
2002 11 24 12	33868.81	0.00	190.68	0.00	5.00	-1.81	537.56
2002 11 25 12	33868.81	0.00	229.07	0.00	7.91	-1.49	560.00
2002 11 26 12	33523.20	0.00	234.63	0.00	6.63	-3.25	478.34
2002 11 27 12	33523.20	9.24	130.30	0.00	2.43	-3.88	459.63
2002 11 28 12	33523.20	0.00	236.63	0.00	0.27	-9.64	293.38
2002 11 29 12	33523.20	0.00	191.31	0.00	0.13	-7.04	357.01
2002 11 30 12	33177.61	0.00	223.04	0.00	6.67	-2.94	492.67
2002 12 01 12	33177.61	1.40	262.64	0.00	5.38	-6.58	373.07
2002 12 02 12	33177.61	0.00	171.85	0.00	-1.47	-7.32	350.62
2002 12 03 12	33177.61	1.76	288.07	0.00	0.27	-14.20	204.08
2002 12 04 12	33177.61	0.00	252.52	0.00	-4.61	-14.80	198.81
2002 12 05 12	32908.44	3.97	136.76	0.00	-4.46	-10.86	270.27
2002 12 06 12	32832.00	9.16	108.08	0.00	-2.99	-7.91	327.20
2002 12 07 12	32832.00	0.00	261.77	0.00	-1.55	-13.01	234.53
2002 12 08 12	32832.00	0.00	276.30	0.00	2.64	-11.19	264.46
2002 12 09 12	32832.00	0.00	288.74	0.00	0.72	-15.81	182.14
2002 12 10 12	32832.00	0.00	267.81	0.00	-3.31	-15.89	180.59
2002 12 11 12	32832.00	0.00	264.70	0.00	1.20	-11.48	241.76
2002 12 12 12	32832.00	18.44	123.58	0.00	1.65	-4.50	440.00
2002 12 13 12	32808.33	0.00	65.87	0.00	1.90	-0.32	598.29
2002 12 14 12	32486.39	15.45	50.80	0.00	2.10	-0.18	601.70
2002 12 15 12	32486.39	2.63	71.03	0.00	2.84	0.00	609.96
2002 12 16 12	32486.39	0.00	146.23	0.00	3.19	-1.90	535.53
2002 12 17 12	32486.39	0.00	238.97	0.00	-0.50	-10.44	271.83
2002 12 18 12	32486.39	0.00	247.40	0.00	-0.77	-11.61	255.57
2002 12 19 12	32486.39	0.00	228.60	0.00	1.42	-8.14	320.00
2002 12 20 12	32486.39	10.00	182.62	0.00	8.93	-2.79	496.96
2002 12 21 12	32486.39	2.97	165.22	0.00	7.86	-1.73	539.75
2002 12 22 12	32486.39	0.00	173.51	0.00	4.75	-2.21	519.05
2002 12 23 12	32486.39	0.00	156.84	0.00	4.35	-2.02	529.49
2002 12 24 12	32486.39	0.00	129.45	0.00	1.96	-3.09	487.92
2002 12 25 12	32486.39	7.02	51.68	0.00	-0.84	-3.33	476.55
2002 12 26 12	32486.39	14.00	71.30	0.00	-0.32	-3.81	462.93
2002 12 27 12	32486.39	0.00	131.41	0.00	-1.55	-6.50	376.37
2002 12 28 12	32562.83	0.00	202.23	0.00	-0.78	-9.14	308.67
2002 12 29 12	32808.33	0.44	200.29	0.00	1.26	-6.82	360.00
2002 12 30 12	32832.00	0.00	223.12	0.00	2.09	-7.40	349.54
2002 12 31 12	32832.00	1.00	223.81	0.00	4.15	-5.33	413.69
