  41.91
 477.00
 831030801
Year Mnth Day Hr	Dayl(s)	PRCP(mm/day)	SRAD(W/m2)	SWE(mm)	Tmax(C)	Tmin(C)	Vp(Pa)
2000 01 01 12	32486.40	0.79	214.77	0.00	-2.22	-2.22	367.35
2000 01 02 12	32486.40	2.99	234.68	0.00	1.63	1.63	457.09
2000 01 03 12	32486.40	16.37	216.93	0.00	7.36	7.36	700.54
2000 01 04 12	32486.40	7.30	182.41	0.00	8.98	8.98	803.13
2000 01 05 12	32613.94	1.31	233.04	0.00	1.93	1.93	442.87
2000 01 06 12	32815.44	0.31	171.84	0.00	-3.15	-3.15	347.26
2000 01 07 12	32832.00	0.77	174.73	0.00	-1.22	-1.22	423.70
2000 01 08 12	32832.00	0.20	226.27	0.00	-2.22	-2.22	379.37
2000 01 09 12	32832.00	0.00	259.60	0.00	-1.04	-1.04	421.69
2000 01 10 12	32890.35	6.93	163.98	0.00	2.33	2.33	572.96
2000 01 11 12	33161.05	6.06	179.42	0.00	3.75	3.75	608.04
2000 01 12 12	33177.60	2.56	146.44	0.00	0.70	0.70	489.76
2000 01 13 12	33177.60	2.12	141.72	0.00	-1.91	-1.91	387.91
2000 01 14 12	33179.52	0.92	229.89	0.00	-8.31	-8.31	210.60
2000 01 15 12	33445.07	0.12	245.64	0.00	-8.49	-8.49	217.61
2000 01 16 12	33523.20	0.17	246.76	0.00	-5.27	-5.27	242.86
2000 01 17 12	33523.20	0.04	312.29	0.00	-8.49	-8.49	159.31
2000 01 18 12	33581.55	1.03	202.93	0.00	-12.41	-12.41	142.67
2000 01 19 12	33868.80	3.49	219.10	0.00	-10.33	-10.33	194.13
2000 01 20 12	33868.80	4.77	155.01	0.00	-6.87	-6.87	258.09
2000 01 21 12	33868.80	4.16	238.21	0.00	-10.07	-10.07	177.02
2000 01 22 12	34197.84	0.95	232.11	0.00	-13.20	-13.20	135.70
2000 01 23 12	34214.40	0.25	249.96	0.00	-12.12	-12.12	159.24
2000 01 24 12	34214.40	0.51	237.60	0.00	-7.80	-7.80	213.56
2000 01 25 12	34543.44	0.56	256.40	0.00	-11.14	-11.14	150.31
2000 01 26 12	34560.00	1.62	235.09	0.00	-10.75	-10.75	155.80
2000 01 27 12	34560.00	0.93	257.54	0.00	-12.73	-12.73	127.26
2000 01 28 12	34905.60	0.14	291.76	0.00	-13.84	-13.84	121.17
2000 01 29 12	34905.60	0.06	297.48	0.00	-13.29	-13.29	118.95
2000 01 30 12	34907.52	1.43	275.93	0.00	-9.41	-9.41	163.74
2000 01 31 12	35251.20	0.61	227.65	0.00	-3.95	-3.95	291.43
2000 02 01 12	35251.20	2.15	192.46	0.00	-5.18	-5.18	289.40
2000 02 02 12	35449.98	1.13	204.79	0.00	-6.84	-6.84	252.36
2000 02 03 12	35596.80	2.79	208.16	0.00	-8.38	-8.38	236.88
2000 02 04 12	35596.80	1.36	191.39	0.00	-5.06	-5.06	294.45
2000 02 05 12	35942.40	0.63	299.38	0.00	-8.02	-8.02	189.69
2000 02 06 12	35942.40	0.12	362.55	0.00	-7.27	-7.27	195.49
2000 02 07 12	36209.87	0.06	294.07	0.00	-5.91	-5.91	221.42
2000 02 08 12	36288.00	0.02	385.02	0.00	-10.85	-10.85	119.27
2000 02 09 12	36289.92	0.00	389.92	0.00	-10.31	-10.31	138.88
2000 02 10 12	36633.60	5.69	291.36	0.00	-0.78	-0.78	331.71
2000 02 11 12	36633.60	1.59	314.25	0.00	0.51	0.51	343.81
2000 02 12 12	36979.20	0.03	388.75	0.00	-6.81	-6.81	187.31
2000 02 13 12	36979.20	5.47	297.24	0.00	-7.93	-7.93	193.18
2000 02 14 12	37246.67	5.94	246.42	0.00	-4.26	-4.26	293.92
2000 02 15 12	37324.80	1.55	250.69	0.00	-3.67	-3.67	321.17
2000 02 16 12	37383.15	0.64	262.47	0.00	-2.93	-2.93	327.42
2000 02 17 12	37670.40	0.21	316.29	0.00	-3.50	-3.50	285.91
2000 02 18 12	37670.40	4.19	252.44	0.00	-4.33	-4.33	296.56
2000 02 19 12	38016.00	1.39	140.70	0.00	-3.33	-3.33	370.94
2000 02 20 12	38016.00	0.66	140.17	0.00	-3.85	-3.85	371.77
2000 02 21 12	38361.60	0.15	168.90	0.00	-3.71	-3.71	379.60
2000 02 22 12	38361.60	0.00	370.38	0.00	-0.67	-0.67	428.97
2000 02 23 12	38707.20	0.00	388.54	0.00	4.51	4.51	562.57
2000 02 24 12	38707.20	5.24	311.98	0.00	7.45	7.45	672.54
2000 02 25 12	39052.80	1.38	411.38	0.00	9.01	9.01	701.04
2000 02 26 12	39052.80	0.00	408.17	0.00	9.29	9.29	718.14
2000 02 27 12	39398.40	5.30	325.87	0.00	10.22	10.22	722.05
2000 02 28 12	39398.40	1.40	436.07	0.00	7.47	7.47	540.01
2000 02 29 12	39727.44	3.48	386.97	0.00	4.97	4.97	490.36
2000 03 01 12	39744.00	5.57	341.34	0.00	2.47	2.47	440.69
2000 03 02 12	40011.47	1.56	349.43	0.00	4.22	4.22	487.94
2000 03 03 12	40089.60	0.03	257.48	0.00	-1.34	-1.34	380.48
2000 03 04 12	40288.38	0.00	431.74	0.00	-1.07	-1.07	354.80
2000 03 05 12	40435.20	0.00	452.68	0.00	1.35	1.35	372.55
2000 03 06 12	40562.74	0.00	455.43	0.00	1.87	1.87	388.71
2000 03 07 12	40780.80	0.00	466.14	0.00	4.46	4.46	470.94
2000 03 08 12	40908.34	0.02	414.73	0.00	9.30	9.30	632.30
2000 03 09 12	41126.40	2.01	356.33	0.00	13.29	13.29	763.90
2000 03 10 12	41184.75	0.87	399.65	0.00	9.01	9.01	566.26
2000 03 11 12	41472.00	6.82	195.78	0.00	1.73	1.73	461.72
2000 03 12 12	41473.92	2.28	227.49	0.00	-0.80	-0.80	417.57
2000 03 13 12	41817.60	0.34	312.23	0.00	-2.61	-2.61	344.56
2000 03 14 12	41819.52	0.23	369.00	0.00	-0.72	-0.72	376.43
2000 03 15 12	42163.20	0.07	459.84	0.00	2.82	2.82	455.58
2000 03 16 12	42165.12	7.97	373.04	0.00	7.46	7.46	551.67
2000 03 17 12	42508.80	2.18	377.95	0.00	1.84	1.84	355.13
2000 03 18 12	42508.80	0.02	460.49	0.00	-4.84	-4.84	234.04
2000 03 19 12	42854.40	0.00	508.99	0.00	-2.33	-2.33	298.10
2000 03 20 12	42854.40	0.03	402.87	0.00	4.47	4.47	533.09
2000 03 21 12	43200.00	0.15	311.78	0.00	7.05	7.05	670.93
2000 03 22 12	43543.68	0.04	337.70	0.00	6.46	6.46	668.82
2000 03 23 12	43545.60	0.00	409.21	0.00	7.43	7.43	661.99
2000 03 24 12	43889.28	1.22	366.02	0.00	7.42	7.42	606.48
2000 03 25 12	43891.20	0.64	370.03	0.00	10.36	10.36	664.81
2000 03 26 12	44234.88	0.08	485.83	0.00	10.02	10.02	597.09
2000 03 27 12	44236.80	2.80	344.29	0.00	5.79	5.79	508.19
2000 03 28 12	44580.48	4.55	359.61	0.00	4.10	4.10	463.29
2000 03 29 12	44582.40	2.91	347.69	0.00	3.69	3.69	473.53
2000 03 30 12	44926.08	0.50	218.09	0.00	2.56	2.56	507.73
2000 03 31 12	44928.00	0.00	479.09	0.00	0.60	0.60	386.21
2000 04 01 12	45215.25	0.73	381.21	0.00	3.54	3.54	432.79
2000 04 02 12	45273.60	6.61	379.61	0.00	7.07	7.07	573.82
2000 04 03 12	45491.66	21.21	234.19	0.00	9.65	9.65	820.23
2000 04 04 12	45619.20	9.80	303.88	0.00	9.97	9.97	777.94
2000 04 05 12	45837.26	1.87	323.01	0.00	3.25	3.25	488.42
2000 04 06 12	45964.80	0.17	431.19	0.00	2.45	2.45	464.38
2000 04 07 12	46111.62	16.29	379.42	0.00	5.38	5.38	518.68
2000 04 08 12	46310.40	21.07	345.91	0.00	4.24	4.24	493.16
2000 04 09 12	46388.53	5.99	382.70	0.00	1.84	1.84	421.95
2000 04 10 12	46656.00	0.42	376.23	0.00	0.47	0.47	419.99
2000 04 11 12	46672.56	1.98	276.48	0.00	1.18	1.18	468.51
2000 04 12 12	47001.60	0.53	398.07	0.00	1.76	1.76	456.49
2000 04 13 12	47001.60	0.00	469.08	0.00	1.53	1.53	427.68
2000 04 14 12	47347.20	0.00	530.47	0.00	4.58	4.58	516.90
2000 04 15 12	47347.20	0.00	529.42	0.00	12.07	12.07	782.55
2000 04 16 12	47692.80	0.60	380.62	0.00	14.15	14.15	911.31
2000 04 17 12	47692.80	1.22	366.72	0.00	12.37	12.37	855.70
2000 04 18 12	48038.40	0.28	357.08	0.00	9.12	9.12	787.74
2000 04 19 12	48038.40	0.00	366.63	0.00	8.51	8.51	809.79
2000 04 20 12	48384.00	20.30	263.89	0.00	10.29	10.29	923.67
2000 04 21 12	48384.00	9.66	283.42	0.00	10.63	10.63	915.24
2000 04 22 12	48729.60	1.81	303.26	0.00	8.94	8.94	806.20
2000 04 23 12	48729.60	0.18	274.64	0.00	6.62	6.62	708.51
2000 04 24 12	49016.85	0.00	511.06	0.00	5.43	5.43	568.00
2000 04 25 12	49075.20	0.00	559.41	0.00	7.25	7.25	527.55
2000 04 26 12	49153.33	0.00	565.32	0.00	6.12	6.12	467.43
2000 04 27 12	49420.80	0.00	554.08	0.00	5.56	5.56	477.66
2000 04 28 12	49420.80	0.00	560.46	0.00	6.15	6.15	509.38
2000 04 29 12	49766.40	0.00	565.72	0.00	8.52	8.52	567.55
2000 04 30 12	49766.40	0.00	564.76	0.00	9.73	9.73	609.53
2000 05 01 12	50110.08	9.14	415.37	0.00	9.36	9.36	654.70
2000 05 02 12	50112.00	2.40	552.27	0.00	10.89	10.89	688.09
2000 05 03 12	50190.13	0.02	516.65	0.00	8.65	8.65	627.03
2000 05 04 12	50457.60	0.76	448.82	0.00	11.07	11.07	705.47
2000 05 05 12	50457.60	0.20	549.53	0.00	13.76	13.76	899.43
2000 05 06 12	50803.20	0.00	513.46	0.00	18.70	18.70	1257.78
2000 05 07 12	50803.20	0.90	388.72	0.00	20.11	20.11	1384.44
2000 05 08 12	50950.02	0.37	410.29	0.00	20.30	20.30	1411.94
2000 05 09 12	51148.80	1.10	393.30	0.00	20.78	20.78	1486.50
2000 05 10 12	51148.80	9.14	377.52	0.00	21.30	21.30	1412.78
2000 05 11 12	51492.48	2.34	490.56	0.00	13.75	13.75	902.06
2000 05 12 12	51494.40	0.00	537.87	0.00	13.38	13.38	1005.04
2000 05 13 12	51494.40	2.21	335.75	0.00	20.37	20.37	1453.34
2000 05 14 12	51840.00	0.62	479.03	0.00	14.30	14.30	877.09
2000 05 15 12	51840.00	0.01	517.03	0.00	8.88	8.88	629.21
2000 05 16 12	51856.56	0.00	563.98	0.00	7.57	7.57	574.70
2000 05 17 12	52185.60	3.40	450.19	0.00	9.34	9.34	685.06
2000 05 18 12	52185.60	49.29	417.03	0.00	14.71	14.71	963.49
2000 05 19 12	52202.16	14.45	392.90	0.00	16.25	16.25	1119.14
2000 05 20 12	52531.20	1.07	139.52	0.00	11.47	11.47	1045.39
2000 05 21 12	52531.20	0.55	178.04	0.00	9.84	9.84	972.44
2000 05 22 12	52531.20	0.10	369.14	0.00	9.50	9.50	888.60
2000 05 23 12	52818.45	5.98	375.28	0.00	12.43	12.43	996.32
2000 05 24 12	52876.80	6.07	240.36	0.00	13.52	13.52	1142.76
2000 05 25 12	52876.80	1.23	448.45	0.00	15.06	15.06	1043.78
2000 05 26 12	52954.93	0.01	526.83	0.00	12.00	12.00	854.23
2000 05 27 12	53220.48	0.02	467.91	0.00	12.50	12.50	894.38
2000 05 28 12	53222.40	0.01	522.35	0.00	11.85	11.85	844.24
2000 05 29 12	53222.40	0.00	459.34	0.00	11.02	11.02	869.48
2000 05 30 12	53238.95	0.00	518.55	0.00	13.05	13.05	971.29
2000 05 31 12	53509.65	7.51	377.65	0.00	15.20	15.20	1156.30
2000 06 01 12	53568.00	2.59	417.60	0.00	18.78	18.78	1400.75
2000 06 02 12	53568.00	12.46	355.21	0.00	21.29	21.29	1541.58
2000 06 03 12	53568.00	3.24	553.59	0.00	16.84	16.84	1061.41
2000 06 04 12	53584.56	0.01	481.14	0.00	12.87	12.87	909.60
2000 06 05 12	53786.06	13.73	373.57	0.00	13.09	13.09	1012.55
2000 06 06 12	53913.60	5.12	186.16	0.00	11.97	11.97	1053.51
2000 06 07 12	53913.60	0.40	463.23	0.00	10.09	10.09	884.19
2000 06 08 12	53913.60	0.00	565.76	0.00	14.39	14.39	1036.86
2000 06 09 12	53913.60	0.00	508.92	0.00	18.68	18.68	1398.29
2000 06 10 12	53913.60	0.48	384.85	0.00	21.39	21.39	1659.12
2000 06 11 12	53930.16	15.37	380.54	0.00	22.69	22.69	1770.73
2000 06 12 12	54060.42	7.23	346.97	0.00	22.26	22.26	1803.69
2000 06 13 12	54131.66	3.37	259.35	0.00	19.77	19.77	1769.92
2000 06 14 12	54200.85	5.88	320.36	0.00	21.87	21.87	1938.82
2000 06 15 12	54257.28	4.64	354.11	0.00	23.86	23.86	1998.45
2000 06 16 12	54259.20	9.20	334.17	0.00	22.24	22.24	1871.68
2000 06 17 12	54259.20	2.96	336.78	0.00	21.73	21.73	1759.28
2000 06 18 12	54259.20	11.40	364.03	0.00	17.90	17.90	1333.29
2000 06 19 12	54259.20	2.95	440.12	0.00	12.48	12.48	1040.51
2000 06 20 12	54259.20	1.78	414.97	0.00	15.80	15.80	1211.10
2000 06 21 12	54259.20	11.88	399.48	0.00	19.76	19.76	1482.08
2000 06 22 12	54259.20	3.00	463.61	0.00	20.38	20.38	1539.57
2000 06 23 12	54259.20	0.00	532.82	0.00	18.14	18.14	1319.85
2000 06 24 12	54259.20	15.44	396.83	0.00	18.43	18.43	1389.05
2000 06 25 12	54257.28	8.46	396.62	0.00	20.15	20.15	1558.60
2000 06 26 12	54257.28	10.15	295.52	0.00	20.73	20.73	1771.71
2000 06 27 12	54131.66	2.43	420.70	0.00	21.41	21.41	1663.72
2000 06 28 12	54060.42	0.07	424.67	0.00	17.90	17.90	1324.15
2000 06 29 12	53991.73	1.83	366.45	0.00	16.95	16.95	1280.35
2000 06 30 12	53913.60	0.48	505.24	0.00	15.41	15.41	1143.52
2000 07 01 12	53913.60	0.00	537.57	0.00	15.94	15.94	1165.71
2000 07 02 12	53913.60	2.16	414.66	0.00	17.73	17.73	1289.83
2000 07 03 12	53913.60	12.43	390.83	0.00	19.48	19.48	1506.33
2000 07 04 12	53913.60	4.23	242.78	0.00	19.41	19.41	1644.91
2000 07 05 12	53855.25	0.29	532.51	0.00	18.13	18.13	1317.51
2000 07 06 12	53714.82	0.03	473.95	0.00	17.43	17.43	1192.40
2000 07 07 12	53568.00	0.01	528.83	0.00	16.22	16.22	1103.01
2000 07 08 12	53568.00	0.00	548.24	0.00	14.33	14.33	1019.97
2000 07 09 12	53568.00	16.58	398.67	0.00	16.11	16.11	1214.02
2000 07 10 12	53568.00	4.37	451.70	0.00	18.32	18.32	1428.74
2000 07 11 12	53369.21	0.00	507.60	0.00	19.55	19.55	1400.50
2000 07 12 12	53222.40	0.00	553.09	0.00	17.14	17.14	1166.81
2000 07 13 12	53222.40	0.00	541.34	0.00	17.88	17.88	1249.24
2000 07 14 12	53222.40	9.44	401.59	0.00	19.37	19.37	1384.07
2000 07 15 12	53094.86	4.60	370.26	0.00	18.61	18.61	1447.30
2000 07 16 12	52876.80	6.11	281.99	0.00	18.71	18.71	1591.80
2000 07 17 12	52876.80	1.46	381.88	0.00	18.72	18.72	1581.84
2000 07 18 12	52876.80	0.00	470.20	0.00	19.55	19.55	1491.14
2000 07 19 12	52609.33	0.00	444.73	0.00	16.21	16.21	1229.79
2000 07 20 12	52531.20	0.00	505.72	0.00	14.69	14.69	1115.21
2000 07 21 12	52531.20	4.69	390.61	0.00	16.19	16.19	1192.72
2000 07 22 12	52403.66	1.23	493.81	0.00	15.96	15.96	1142.72
2000 07 23 12	52185.60	0.00	525.59	0.00	14.56	14.56	1043.99
2000 07 24 12	52185.60	0.00	538.66	0.00	15.43	15.43	1079.80
2000 07 25 12	52127.25	0.00	535.68	0.00	16.90	16.90	1175.56
2000 07 26 12	51840.00	0.00	528.66	0.00	18.38	18.38	1295.73
2000 07 27 12	51840.00	0.00	517.08	0.00	19.73	19.73	1431.68
2000 07 28 12	51712.46	6.93	381.65	0.00	20.88	20.88	1595.27
2000 07 29 12	51494.40	7.07	357.51	0.00	21.74	21.74	1736.78
2000 07 30 12	51494.40	14.73	330.68	0.00	21.60	21.60	1830.20
2000 07 31 12	51226.93	12.00	307.56	0.00	22.70	22.70	1998.95
2000 08 01 12	51148.80	7.26	333.40	0.00	23.03	23.03	2008.21
2000 08 02 12	51148.80	15.42	317.44	0.00	22.49	22.49	1899.83
2000 08 03 12	50803.20	4.80	347.76	0.00	20.38	20.38	1612.46
2000 08 04 12	50803.20	0.29	467.32	0.00	17.93	17.93	1337.13
2000 08 05 12	50604.42	6.33	396.98	0.00	15.48	15.48	1136.60
2000 08 06 12	50457.60	16.30	394.72	0.00	16.42	16.42	1242.89
2000 08 07 12	50457.60	3.88	383.98	0.00	18.72	18.72	1561.12
2000 08 08 12	50112.00	0.10	370.64	0.00	20.30	20.30	1683.26
2000 08 09 12	50112.00	5.62	360.92	0.00	21.21	21.21	1712.52
2000 08 10 12	49782.95	2.00	358.07	0.00	21.44	21.44	1741.89
2000 08 11 12	49766.40	2.13	325.12	0.00	19.98	19.98	1603.29
2000 08 12 12	49708.05	0.69	382.40	0.00	17.50	17.50	1349.81
2000 08 13 12	49420.80	0.04	463.79	0.00	16.69	16.69	1304.02
2000 08 14 12	49420.80	0.02	459.79	0.00	17.84	17.84	1395.81
2000 08 15 12	49075.20	8.83	354.06	0.00	19.33	19.33	1540.70
2000 08 16 12	49075.20	2.32	472.71	0.00	20.22	20.22	1523.70
2000 08 17 12	48729.60	0.58	353.01	0.00	16.84	16.84	1275.15
2000 08 18 12	48729.60	0.17	347.01	0.00	14.78	14.78	1218.62
2000 08 19 12	48400.56	0.00	485.59	0.00	15.59	15.59	1152.35
2000 08 20 12	48384.00	0.00	515.96	0.00	13.91	13.91	950.75
2000 08 21 12	48185.21	0.00	523.31	0.00	12.60	12.60	877.26
2000 08 22 12	48038.40	2.33	393.10	0.00	14.18	14.18	1004.11
2000 08 23 12	47980.05	6.47	376.81	0.00	17.32	17.32	1265.24
2000 08 24 12	47692.80	1.54	430.96	0.00	19.54	19.54	1458.94
2000 08 25 12	47692.80	0.00	502.18	0.00	17.14	17.14	1201.43
2000 08 26 12	47347.20	0.00	498.51	0.00	17.38	17.38	1210.14
2000 08 27 12	47347.20	0.02	452.42	0.00	18.02	18.02	1322.59
2000 08 28 12	47001.60	0.01	394.41	0.00	18.68	18.68	1499.88
2000 08 29 12	47001.60	0.00	443.73	0.00	19.65	19.65	1564.66
2000 08 30 12	46656.00	0.00	423.97	0.00	20.49	20.49	1632.39
2000 08 31 12	46656.00	0.00	435.86	0.00	20.76	20.76	1652.86
2000 09 01 12	46310.40	0.00	439.03	0.00	21.92	21.92	1778.94
2000 09 02 12	46310.40	5.21	302.46	0.00	23.54	23.54	2013.15
2000 09 03 12	45964.80	1.37	401.51	0.00	23.85	23.85	1988.38
2000 09 04 12	45964.80	0.16	330.15	0.00	21.77	21.77	1647.25
2000 09 05 12	45619.20	0.04	484.87	0.00	13.23	13.23	917.74
2000 09 06 12	45619.20	0.00	489.44	0.00	10.94	10.94	784.16
2000 09 07 12	45273.60	0.00	499.36	0.00	13.04	13.04	867.10
2000 09 08 12	45273.60	0.00	477.87	0.00	15.98	15.98	1098.64
2000 09 09 12	44928.00	0.93	392.84	0.00	19.33	19.33	1443.85
2000 09 10 12	44928.00	7.25	295.81	0.00	20.82	20.82	1683.36
2000 09 11 12	44582.40	8.43	304.06	0.00	21.63	21.63	1788.32
2000 09 12 12	44582.40	7.56	240.60	0.00	21.51	21.51	1769.56
2000 09 13 12	44236.80	2.15	369.46	0.00	16.45	16.45	1192.10
2000 09 14 12	44236.80	4.77	324.98	0.00	15.08	15.08	1091.34
2000 09 15 12	43891.20	22.10	321.93	0.00	14.58	14.58	1069.39
2000 09 16 12	43891.20	5.75	239.72	0.00	11.96	11.96	987.07
2000 09 17 12	43545.60	0.07	405.66	0.00	10.23	10.23	882.88
2000 09 18 12	43545.60	0.00	430.10	0.00	13.06	13.06	999.27
2000 09 19 12	43200.00	0.00	430.68	0.00	15.86	15.86	1158.86
2000 09 20 12	43200.00	13.37	294.54	0.00	17.22	17.22	1306.15
2000 09 21 12	42854.40	3.62	386.02	0.00	17.45	17.45	1246.31
2000 09 22 12	42854.40	4.50	247.98	0.00	12.60	12.60	1029.15
2000 09 23 12	42508.80	9.04	294.86	0.00	12.51	12.51	1056.79
2000 09 24 12	42508.80	2.29	265.05	0.00	15.15	15.15	1176.69
2000 09 25 12	42163.20	0.06	348.58	0.00	9.45	9.45	827.91
2000 09 26 12	42163.20	0.00	333.26	0.00	8.01	8.01	778.32
2000 09 27 12	41817.60	0.55	322.34	0.00	9.53	9.53	801.90
2000 09 28 12	41817.60	0.23	365.14	0.00	10.50	10.50	750.01
2000 09 29 12	41472.00	0.02	415.07	0.00	6.92	6.92	615.26
2000 09 30 12	41472.00	0.00	427.95	0.00	8.80	8.80	687.18
2000 10 01 12	41126.40	0.00	414.88	0.00	12.06	12.06	854.55
2000 10 02 12	41126.40	0.23	295.71	0.00	14.06	14.06	1011.40
2000 10 03 12	40780.80	12.52	294.31	0.00	14.85	14.85	1048.07
2000 10 04 12	40780.80	9.90	289.30	0.00	13.72	13.72	991.73
2000 10 05 12	40435.20	26.97	249.75	0.00	12.94	12.94	1021.85
2000 10 06 12	40435.20	10.13	83.08	0.00	10.36	10.36	993.96
2000 10 07 12	40089.60	9.10	210.80	0.00	6.47	6.47	746.58
2000 10 08 12	40089.60	5.16	219.23	0.00	4.02	4.02	614.36
2000 10 09 12	39744.00	4.75	204.81	0.00	3.54	3.54	606.20
2000 10 10 12	39744.00	1.23	203.41	0.00	3.59	3.59	625.27
2000 10 11 12	39398.40	0.05	347.35	0.00	6.38	6.38	684.92
2000 10 12 12	39398.40	0.00	382.82	0.00	7.65	7.65	659.76
2000 10 13 12	39052.80	0.00	384.71	0.00	9.50	9.50	706.52
2000 10 14 12	39052.80	0.04	362.85	0.00	11.76	11.76	818.77
2000 10 15 12	38707.20	0.64	273.52	0.00	13.44	13.44	932.31
2000 10 16 12	38707.20	0.82	218.06	0.00	12.13	12.13	1017.36
2000 10 17 12	38419.95	2.12	206.52	0.00	13.20	13.20	1141.78
2000 10 18 12	38361.60	0.51	202.49	0.00	12.29	12.29	1073.97
2000 10 19 12	38214.79	0.00	327.10	0.00	9.07	9.07	803.84
2000 10 20 12	38016.00	0.00	353.38	0.00	8.72	8.72	710.60
2000 10 21 12	37999.44	0.00	351.79	0.00	10.82	10.82	744.02
2000 10 22 12	37670.40	0.00	350.86	0.00	10.42	10.42	694.20
2000 10 23 12	37670.40	1.67	262.15	0.00	8.31	8.31	619.70
2000 10 24 12	37324.80	1.45	258.02	0.00	9.52	9.52	725.94
2000 10 25 12	37324.80	0.27	195.88	0.00	12.70	12.70	1067.95
2000 10 26 12	36979.20	0.00	297.49	0.00	13.74	13.74	1127.96
2000 10 27 12	36979.20	1.03	228.25	0.00	15.24	15.24	1117.10
2000 10 28 12	36691.95	0.27	317.70	0.00	13.13	13.13	871.81
2000 10 29 12	36633.60	0.00	309.45	0.00	3.90	3.90	487.04
2000 10 30 12	36617.05	0.00	309.55	0.00	2.17	2.17	441.92
2000 10 31 12	36288.00	0.00	318.48	0.00	3.43	3.43	465.43
2000 11 01 12	36288.00	0.00	310.21	0.00	4.21	4.21	490.22
2000 11 02 12	35942.40	0.00	318.72	0.00	5.48	5.48	519.31
2000 11 03 12	35942.40	1.48	233.78	0.00	8.07	8.07	615.48
2000 11 04 12	35795.58	0.44	219.60	0.00	8.23	8.23	704.55
2000 11 05 12	35596.80	0.01	235.30	0.00	5.57	5.57	621.53
2000 11 06 12	35596.80	0.01	256.38	0.00	1.99	1.99	450.56
2000 11 07 12	35251.20	0.00	293.83	0.00	3.51	3.51	510.33
2000 11 08 12	35251.20	0.38	182.89	0.00	8.70	8.70	804.60
2000 11 09 12	35173.07	7.02	174.27	0.00	10.84	10.84	945.10
2000 11 10 12	34905.60	5.17	154.42	0.00	11.36	11.36	968.23
2000 11 11 12	34905.60	0.88	92.67	0.00	7.07	7.07	803.99
2000 11 12 12	34687.54	0.00	113.04	0.00	4.23	4.23	687.13
2000 11 13 12	34560.00	1.06	180.31	0.00	3.86	3.86	596.49
2000 11 14 12	34560.00	1.49	161.08	0.00	3.63	3.63	562.27
2000 11 15 12	34272.75	1.73	91.28	0.00	0.96	0.96	499.40
2000 11 16 12	34214.40	0.43	143.41	0.00	-1.74	-1.74	423.79
2000 11 17 12	34214.40	3.42	158.32	0.00	0.08	0.08	454.82
2000 11 18 12	33996.34	1.11	106.99	0.00	-0.25	-0.25	456.29
2000 11 19 12	33868.80	0.45	82.49	0.00	-1.87	-1.87	430.02
2000 11 20 12	33868.80	3.72	99.34	0.00	-1.82	-1.82	424.24
2000 11 21 12	33790.67	7.86	106.46	0.00	-2.55	-2.55	382.41
2000 11 22 12	33523.20	4.92	171.41	0.00	-5.84	-5.84	277.03
2000 11 23 12	33523.20	0.89	233.27	0.00	-9.37	-9.37	195.64
2000 11 24 12	33523.20	0.02	276.67	0.00	-8.14	-8.14	216.04
2000 11 25 12	33305.14	5.19	222.00	0.00	-3.99	-3.99	299.83
2000 11 26 12	33177.60	4.21	219.56	0.00	-1.49	-1.49	390.95
2000 11 27 12	33177.60	2.26	124.17	0.00	2.68	2.68	602.44
2000 11 28 12	33177.60	2.62	87.96	0.00	2.44	2.44	631.78
2000 11 29 12	33030.79	7.13	123.71	0.00	1.29	1.29	568.85
2000 11 30 12	32832.00	3.64	138.03	0.00	0.87	0.87	525.83
2000 12 01 12	32832.00	0.94	122.56	0.00	-0.89	-0.89	447.25
2000 12 02 12	32832.00	0.15	193.09	0.00	-4.79	-4.79	301.02
2000 12 03 12	32832.00	0.01	279.85	0.00	-8.91	-8.91	186.59
2000 12 04 12	32685.18	0.69	228.63	0.00	-8.11	-8.11	184.59
2000 12 05 12	32544.75	2.80	228.68	0.00	-6.07	-6.07	214.46
2000 12 06 12	32486.40	2.22	203.33	0.00	-5.84	-5.84	247.00
2000 12 07 12	32486.40	2.50	134.59	0.00	-7.90	-7.90	252.00
2000 12 08 12	32486.40	3.50	141.11	0.00	-6.74	-6.74	282.29
2000 12 09 12	32486.40	0.88	216.29	0.00	-6.76	-6.76	245.27
2000 12 10 12	32486.40	0.04	256.68	0.00	-6.99	-6.99	246.37
2000 12 11 12	32408.27	8.86	184.17	0.00	-2.16	-2.16	384.94
2000 12 12 12	32339.58	3.87	221.27	0.00	-0.34	-0.34	372.99
2000 12 13 12	32268.34	9.21	220.07	0.00	-7.79	-7.79	209.11
2000 12 14 12	32142.72	3.09	229.57	0.00	-7.62	-7.62	222.64
2000 12 15 12	32142.72	0.20	206.19	0.00	-2.28	-2.28	380.27
2000 12 16 12	32140.80	9.55	146.96	0.00	-1.46	-1.46	454.68
2000 12 17 12	32140.80	4.02	203.76	0.00	2.37	2.37	523.30
2000 12 18 12	32140.80	2.65	230.17	0.00	-3.18	-3.18	272.81
2000 12 19 12	32140.80	0.90	192.91	0.00	-7.27	-7.27	220.24
2000 12 20 12	32140.80	0.70	220.33	0.00	-8.22	-8.22	213.13
2000 12 21 12	32140.80	0.33	190.96	0.00	-8.69	-8.69	210.05
2000 12 22 12	32140.80	0.27	225.09	0.00	-9.16	-9.16	186.75
2000 12 23 12	32140.80	0.19	167.37	0.00	-12.79	-12.79	154.25
2000 12 24 12	32140.80	2.32	176.54	0.00	-11.27	-11.27	183.21
2000 12 25 12	32142.72	1.03	191.19	0.00	-9.93	-9.93	196.76
2000 12 26 12	32199.15	0.29	135.71	0.00	-10.36	-10.36	204.46
2000 12 27 12	32268.34	2.37	143.31	0.00	-9.81	-9.81	210.24
2000 12 28 12	32339.58	0.81	233.74	0.00	-12.04	-12.04	148.41
2000 12 29 12	32469.84	0.05	274.59	0.00	-12.70	-12.70	138.74
2000 12 30 12	32486.40	1.03	220.54	0.00	-10.37	-10.37	176.76
2000 12 31 12	32486.40	0.72	152.34	0.00	-8.31	-8.31	231.73
2001 01 01 12	32486.40	0.56	144.65	0.00	-8.42	-8.42	235.66
2001 01 02 12	32486.40	0.29	238.01	0.00	-9.59	-9.59	182.38
2001 01 03 12	32486.40	0.63	223.81	0.00	-10.19	-10.19	174.61
2001 01 04 12	32486.40	1.48	196.67	0.00	-7.98	-7.98	233.59
2001 01 05 12	32613.94	5.87	150.08	0.00	-5.84	-5.84	304.36
2001 01 06 12	32815.44	1.57	167.13	0.00	-3.82	-3.82	356.85
2001 01 07 12	32832.00	0.09	160.38	0.00	-3.44	-3.44	379.18
2001 01 08 12	32832.00	0.56	151.68	0.00	-1.55	-1.55	409.44
2001 01 09 12	32832.00	0.40	261.83	0.00	-7.83	-7.83	209.15
2001 01 10 12	32890.35	0.07	270.67	0.00	-8.97	-8.97	204.21
2001 01 11 12	33161.05	0.00	289.71	0.00	-4.17	-4.17	285.46
2001 01 12 12	33177.60	0.00	312.47	0.00	-5.34	-5.34	229.65
2001 01 13 12	33177.60	0.00	316.74	0.00	-4.44	-4.44	232.90
2001 01 14 12	33179.52	0.29	251.12	0.00	-2.56	-2.56	283.08
2001 01 15 12	33445.07	1.87	232.52	0.00	-1.34	-1.34	369.96
2001 01 16 12	33523.20	1.85	185.14	0.00	1.51	1.51	508.10
2001 01 17 12	33523.20	1.48	101.50	0.00	-0.48	-0.48	484.06
2001 01 18 12	33581.55	0.48	111.65	0.00	-2.22	-2.22	435.43
2001 01 19 12	33868.80	0.06	262.47	0.00	-1.70	-1.70	385.23
2001 01 20 12	33868.80	0.00	277.37	0.00	-4.22	-4.22	291.22
2001 01 21 12	33868.80	0.00	290.11	0.00	-7.90	-7.90	221.91
2001 01 22 12	34197.84	0.00	274.42	0.00	-7.32	-7.32	234.65
2001 01 23 12	34214.40	0.01	275.37	0.00	-7.15	-7.15	242.88
2001 01 24 12	34214.40	0.83	272.77	0.00	-4.48	-4.48	272.35
2001 01 25 12	34543.44	0.58	237.04	0.00	-4.15	-4.15	283.14
2001 01 26 12	34560.00	3.98	176.87	0.00	-5.97	-5.97	281.80
2001 01 27 12	34560.00	2.48	234.22	0.00	-4.71	-4.71	300.93
2001 01 28 12	34905.60	0.42	236.96	0.00	-5.48	-5.48	269.15
2001 01 29 12	34905.60	1.49	253.69	0.00	-8.86	-8.86	202.86
2001 01 30 12	34907.52	6.65	285.39	0.00	-6.72	-6.72	253.03
2001 01 31 12	35251.20	2.80	208.53	0.00	2.18	2.18	527.26
2001 02 01 12	35251.20	0.97	130.23	0.00	0.52	0.52	509.17
2001 02 02 12	35449.98	2.72	175.01	0.00	-1.42	-1.42	421.75
2001 02 03 12	35596.80	0.75	275.52	0.00	-5.47	-5.47	274.73
2001 02 04 12	35596.80	0.02	274.07	0.00	-6.82	-6.82	262.22
2001 02 05 12	35942.40	0.65	265.91	0.00	-3.04	-3.04	359.53
2001 02 06 12	35942.40	1.87	186.59	0.00	-0.46	-0.46	448.61
2001 02 07 12	36209.87	0.45	198.07	0.00	-1.24	-1.24	428.76
2001 02 08 12	36288.00	3.74	236.23	0.00	-3.08	-3.08	371.42
2001 02 09 12	36289.92	4.85	296.40	0.00	1.27	1.27	441.49
2001 02 10 12	36633.60	1.46	304.83	0.00	3.45	3.45	396.82
2001 02 11 12	36633.60	0.12	313.74	0.00	-4.43	-4.43	254.59
2001 02 12 12	36979.20	0.00	315.88	0.00	-8.03	-8.03	229.95
2001 02 13 12	36979.20	1.09	313.84	0.00	-3.73	-3.73	308.93
2001 02 14 12	37246.67	8.77	282.67	0.00	2.57	2.57	489.15
2001 02 15 12	37324.80	2.29	353.98	0.00	2.39	2.39	468.60
2001 02 16 12	37383.15	0.63	192.79	0.00	-0.37	-0.37	414.78
2001 02 17 12	37670.40	0.68	304.27	0.00	-3.97	-3.97	292.64
2001 02 18 12	37670.40	0.14	259.79	0.00	-7.50	-7.50	233.22
2001 02 19 12	38016.00	0.00	327.52	0.00	-7.95	-7.95	241.88
2001 02 20 12	38016.00	0.11	329.45	0.00	-2.62	-2.62	312.73
2001 02 21 12	38361.60	0.25	347.46	0.00	-0.18	-0.18	296.18
2001 02 22 12	38361.60	0.99	291.66	0.00	-8.38	-8.38	186.34
2001 02 23 12	38707.20	0.93	318.43	0.00	-9.27	-9.27	180.24
2001 02 24 12	38707.20	2.22	338.06	0.00	-8.41	-8.41	187.62
2001 02 25 12	39052.80	0.87	344.67	0.00	-4.12	-4.12	279.65
2001 02 26 12	39052.80	0.12	386.44	0.00	5.32	5.32	467.02
2001 02 27 12	39398.40	0.03	254.58	0.00	-0.87	-0.87	356.02
2001 02 28 12	39398.40	0.31	286.86	0.00	-4.61	-4.61	285.03
2001 03 01 12	39727.44	0.92	272.28	0.00	-5.78	-5.78	268.23
2001 03 02 12	39744.00	0.25	342.96	0.00	-4.52	-4.52	310.14
2001 03 03 12	40011.47	0.01	284.51	0.00	-1.06	-1.06	399.30
2001 03 04 12	40089.60	7.28	301.26	0.00	-2.13	-2.13	355.14
2001 03 05 12	40288.38	4.31	249.50	0.00	-1.92	-1.92	347.32
2001 03 06 12	40435.20	3.83	353.51	0.00	-7.65	-7.65	219.04
2001 03 07 12	40562.74	0.84	299.77	0.00	-4.97	-4.97	295.09
2001 03 08 12	40780.80	0.75	282.14	0.00	-2.73	-2.73	349.40
2001 03 09 12	40908.34	1.70	279.72	0.00	-2.32	-2.32	344.67
2001 03 10 12	41126.40	1.27	322.66	0.00	-3.70	-3.70	295.96
2001 03 11 12	41184.75	2.80	348.78	0.00	-3.98	-3.98	262.12
2001 03 12 12	41472.00	4.16	388.73	0.00	-6.91	-6.91	189.42
2001 03 13 12	41473.92	5.23	399.18	0.00	-3.82	-3.82	241.29
2001 03 14 12	41817.60	1.33	329.68	0.00	2.29	2.29	440.28
2001 03 15 12	41819.52	0.05	433.25	0.00	1.79	1.79	434.43
2001 03 16 12	42163.20	3.53	368.64	0.00	1.85	1.85	423.34
2001 03 17 12	42165.12	3.29	235.51	0.00	0.25	0.25	407.08
2001 03 18 12	42508.80	0.62	472.94	0.00	-3.76	-3.76	268.99
2001 03 19 12	42508.80	0.00	508.69	0.00	-3.18	-3.18	255.34
2001 03 20 12	42854.40	0.03	494.21	0.00	-0.17	-0.17	308.78
2001 03 21 12	42854.40	6.32	400.58	0.00	3.02	3.02	407.20
2001 03 22 12	43200.00	1.66	350.42	0.00	3.06	3.06	471.90
2001 03 23 12	43543.68	0.41	409.61	0.00	0.78	0.78	383.32
2001 03 24 12	43545.60	3.14	401.98	0.00	1.73	1.73	366.47
2001 03 25 12	43889.28	6.60	345.32	0.00	-2.02	-2.02	299.20
2001 03 26 12	43891.20	1.76	345.28	0.00	-5.42	-5.42	251.83
2001 03 27 12	44234.88	0.07	387.66	0.00	-6.08	-6.08	250.04
2001 03 28 12	44236.80	0.00	447.57	0.00	-3.99	-3.99	299.53
2001 03 29 12	44580.48	4.43	382.77	0.00	0.58	0.58	410.98
2001 03 30 12	44582.40	1.27	375.09	0.00	3.11	3.11	486.43
2001 03 31 12	44926.08	0.03	337.37	0.00	1.95	1.95	479.26
2001 04 01 12	44928.00	0.02	334.19	0.00	0.51	0.51	445.05
2001 04 02 12	45215.25	0.01	499.91	0.00	2.60	2.60	434.35
2001 04 03 12	45273.60	2.41	407.56	0.00	2.08	2.08	400.03
2001 04 04 12	45491.66	0.63	512.32	0.00	0.85	0.85	368.57
2001 04 05 12	45619.20	2.71	437.10	0.00	2.89	2.89	388.96
2001 04 06 12	45837.26	2.30	440.39	0.00	6.01	6.01	488.00
2001 04 07 12	45964.80	1.61	392.34	0.00	11.38	11.38	786.13
2001 04 08 12	46111.62	0.44	442.42	0.00	13.25	13.25	868.58
2001 04 09 12	46310.40	7.22	425.17	0.00	15.22	15.22	853.62
2001 04 10 12	46388.53	1.90	528.13	0.00	13.32	13.32	735.64
2001 04 11 12	46656.00	0.25	405.35	0.00	11.35	11.35	772.92
2001 04 12 12	46672.56	0.07	435.52	0.00	12.48	12.48	887.82
2001 04 13 12	47001.60	0.00	559.32	0.00	15.99	15.99	822.61
2001 04 14 12	47001.60	0.03	488.04	0.00	8.37	8.37	541.87
2001 04 15 12	47347.20	11.97	437.19	0.00	7.31	7.31	530.32
2001 04 16 12	47347.20	7.31	393.32	0.00	7.00	7.00	571.50
2001 04 17 12	47692.80	2.56	398.87	0.00	4.61	4.61	493.98
2001 04 18 12	47692.80	0.39	390.03	0.00	1.29	1.29	418.30
2001 04 19 12	48038.40	0.03	455.46	0.00	-0.88	-0.88	352.89
2001 04 20 12	48038.40	7.54	449.82	0.00	2.38	2.38	414.91
2001 04 21 12	48384.00	9.51	385.76	0.00	6.76	6.76	671.28
2001 04 22 12	48384.00	5.71	350.90	0.00	12.33	12.33	1008.13
2001 04 23 12	48729.60	1.68	388.09	0.00	16.66	16.66	1175.34
2001 04 24 12	48729.60	0.31	440.60	0.00	18.11	18.11	1018.49
2001 04 25 12	49016.85	0.03	540.10	0.00	7.08	7.08	526.31
2001 04 26 12	49075.20	0.60	431.23	0.00	5.87	5.87	498.06
2001 04 27 12	49153.33	0.19	547.46	0.00	8.50	8.50	551.20
2001 04 28 12	49420.80	0.01	567.74	0.00	9.38	9.38	537.89
2001 04 29 12	49420.80	0.00	558.82	0.00	5.64	5.64	448.39
2001 04 30 12	49766.40	0.00	576.82	0.00	7.27	7.27	510.95
2001 05 01 12	49766.40	0.00	571.59	0.00	13.37	13.37	720.31
2001 05 02 12	50110.08	0.00	554.06	0.00	17.14	17.14	916.12
2001 05 03 12	50112.00	0.00	531.54	0.00	19.06	19.06	1079.65
2001 05 04 12	50190.13	0.01	521.84	0.00	19.55	19.55	1108.89
2001 05 05 12	50457.60	0.01	512.41	0.00	18.60	18.60	1030.51
2001 05 06 12	50457.60	0.00	502.32	0.00	14.73	14.73	899.20
2001 05 07 12	50803.20	0.00	515.56	0.00	15.51	15.51	966.86
2001 05 08 12	50803.20	5.66	373.51	0.00	16.39	16.39	1043.43
2001 05 09 12	50950.02	1.49	381.28	0.00	13.08	13.08	931.25
2001 05 10 12	51148.80	0.00	533.13	0.00	14.05	14.05	896.27
2001 05 11 12	51148.80	17.30	406.08	0.00	16.43	16.43	999.99
2001 05 12 12	51492.48	7.08	393.16	0.00	16.49	16.49	960.17
2001 05 13 12	51494.40	1.01	368.02	0.00	8.09	8.09	639.89
2001 05 14 12	51494.40	0.45	397.69	0.00	7.79	7.79	629.50
2001 05 15 12	51840.00	0.09	540.32	0.00	9.54	9.54	648.97
2001 05 16 12	51840.00	0.00	562.81	0.00	11.40	11.40	690.92
2001 05 17 12	51856.56	0.26	444.76	0.00	13.00	13.00	850.60
2001 05 18 12	52185.60	0.89	179.24	0.00	14.26	14.26	1122.95
2001 05 19 12	52185.60	0.22	513.48	0.00	13.84	13.84	912.15
2001 05 20 12	52202.16	0.00	554.43	0.00	14.52	14.52	877.92
2001 05 21 12	52531.20	17.27	379.67	0.00	16.37	16.37	1096.39
2001 05 22 12	52531.20	15.80	166.70	0.00	14.78	14.78	1186.85
2001 05 23 12	52531.20	2.96	510.28	0.00	13.14	13.14	913.49
2001 05 24 12	52818.45	2.64	394.96	0.00	13.15	13.15	897.29
2001 05 25 12	52876.80	6.83	389.82	0.00	13.78	13.78	933.68
2001 05 26 12	52876.80	2.04	400.92	0.00	13.52	13.52	943.92
2001 05 27 12	52954.93	6.06	382.77	0.00	14.24	14.24	981.17
2001 05 28 12	53220.48	5.35	283.29	0.00	11.76	11.76	963.53
2001 05 29 12	53222.40	1.03	263.94	0.00	11.04	11.04	926.44
2001 05 30 12	53222.40	0.01	543.44	0.00	9.45	9.45	674.41
2001 05 31 12	53238.95	0.00	566.95	0.00	7.67	7.67	593.55
2001 06 01 12	53509.65	18.45	424.43	0.00	10.21	10.21	769.72
2001 06 02 12	53568.00	6.13	323.04	0.00	13.13	13.13	1028.94
2001 06 03 12	53568.00	5.01	280.09	0.00	12.64	12.64	1055.81
2001 06 04 12	53568.00	1.78	202.72	0.00	10.87	10.87	992.06
2001 06 05 12	53584.56	0.19	414.55	0.00	11.15	11.15	876.02
2001 06 06 12	53786.06	0.27	392.73	0.00	12.70	12.70	944.51
2001 06 07 12	53913.60	0.07	485.41	0.00	14.44	14.44	1011.11
2001 06 08 12	53913.60	0.00	564.86	0.00	14.89	14.89	924.13
2001 06 09 12	53913.60	0.73	432.13	0.00	14.64	14.64	906.28
2001 06 10 12	53913.60	12.14	426.69	0.00	15.27	15.27	1008.57
2001 06 11 12	53913.60	3.66	435.10	0.00	18.06	18.06	1235.42
2001 06 12 12	53930.16	0.13	511.50	0.00	18.49	18.49	1273.87
2001 06 13 12	54060.42	0.00	544.83	0.00	20.01	20.01	1322.84
2001 06 14 12	54131.66	0.00	542.48	0.00	21.55	21.55	1466.91
2001 06 15 12	54200.85	0.00	518.09	0.00	24.41	24.41	1768.20
2001 06 16 12	54257.28	6.78	337.17	0.00	24.02	24.02	1797.65
2001 06 17 12	54259.20	1.78	485.22	0.00	17.72	17.72	1239.45
2001 06 18 12	54259.20	0.00	552.02	0.00	17.44	17.44	1141.12
2001 06 19 12	54259.20	0.00	553.50	0.00	19.70	19.70	1308.04
2001 06 20 12	54259.20	0.72	402.02	0.00	22.80	22.80	1595.44
2001 06 21 12	54259.20	35.62	351.37	0.00	21.90	21.90	1659.46
2001 06 22 12	54259.20	11.78	326.68	0.00	20.36	20.36	1594.96
2001 06 23 12	54259.20	3.93	304.50	0.00	17.43	17.43	1362.83
2001 06 24 12	54259.20	0.86	448.23	0.00	15.11	15.11	1149.17
2001 06 25 12	54259.20	0.00	538.71	0.00	16.46	16.46	1133.42
2001 06 26 12	54257.28	0.00	551.31	0.00	18.40	18.40	1218.37
2001 06 27 12	54257.28	0.00	542.92	0.00	20.46	20.46	1391.49
2001 06 28 12	54131.66	0.00	511.49	0.00	22.38	22.38	1590.16
2001 06 29 12	54060.42	0.32	389.58	0.00	22.07	22.07	1651.44
2001 06 30 12	53991.73	2.54	386.73	0.00	23.21	23.21	1783.43
2001 07 01 12	53913.60	5.18	341.29	0.00	21.70	21.70	1579.53
2001 07 02 12	53913.60	1.37	446.99	0.00	14.79	14.79	970.38
2001 07 03 12	53913.60	0.17	419.41	0.00	13.54	13.54	971.23
2001 07 04 12	53913.60	7.21	378.05	0.00	14.84	14.84	1165.19
2001 07 05 12	53913.60	5.75	278.37	0.00	17.55	17.55	1356.96
2001 07 06 12	53855.25	1.02	554.32	0.00	14.97	14.97	999.90
2001 07 07 12	53714.82	0.76	410.44	0.00	15.14	15.14	1064.28
2001 07 08 12	53568.00	0.74	439.37	0.00	18.00	18.00	1262.98
2001 07 09 12	53568.00	0.36	443.10	0.00	19.16	19.16	1343.66
2001 07 10 12	53568.00	4.11	397.56	0.00	20.73	20.73	1445.23
2001 07 11 12	53568.00	1.07	512.76	0.00	20.44	20.44	1358.65
2001 07 12 12	53369.21	0.00	493.76	0.00	16.38	16.38	1122.65
2001 07 13 12	53222.40	0.00	530.34	0.00	15.12	15.12	1034.68
2001 07 14 12	53222.40	0.00	527.27	0.00	15.77	15.77	1072.93
2001 07 15 12	53222.40	0.02	496.30	0.00	16.41	16.41	1149.89
2001 07 16 12	53094.86	0.15	443.13	0.00	19.12	19.12	1338.35
2001 07 17 12	52876.80	0.04	484.10	0.00	20.71	20.71	1519.50
2001 07 18 12	52876.80	0.42	428.05	0.00	22.02	22.02	1677.06
2001 07 19 12	52876.80	11.71	327.84	0.00	22.14	22.14	1733.88
2001 07 20 12	52609.33	3.05	507.58	0.00	21.29	21.29	1519.75
2001 07 21 12	52531.20	0.00	525.20	0.00	21.43	21.43	1477.94
2001 07 22 12	52531.20	0.00	508.06	0.00	22.00	22.00	1589.94
2001 07 23 12	52403.66	0.00	462.12	0.00	23.53	23.53	1822.45
2001 07 24 12	52185.60	0.03	455.04	0.00	24.82	24.82	1950.86
2001 07 25 12	52185.60	12.29	358.68	0.00	24.82	24.82	1904.94
2001 07 26 12	52127.25	3.24	482.36	0.00	22.40	22.40	1496.08
2001 07 27 12	51840.00	0.00	553.97	0.00	15.43	15.43	978.16
2001 07 28 12	51840.00	0.00	545.24	0.00	16.22	16.22	1055.56
2001 07 29 12	51712.46	0.00	520.82	0.00	18.52	18.52	1278.20
2001 07 30 12	51494.40	0.00	291.40	0.00	18.41	18.41	1497.64
2001 07 31 12	51494.40	0.00	470.94	0.00	19.04	19.04	1457.11
2001 08 01 12	51226.93	0.00	518.40	0.00	21.17	21.17	1507.74
2001 08 02 12	51148.80	13.95	383.93	0.00	22.84	22.84	1701.88
2001 08 03 12	51148.80	16.25	329.58	0.00	23.73	23.73	1925.39
2001 08 04 12	50803.20	3.31	311.33	0.00	22.15	22.15	1873.34
2001 08 05 12	50803.20	0.00	500.57	0.00	21.07	21.07	1598.43
2001 08 06 12	50604.42	0.00	505.18	0.00	22.91	22.91	1670.91
2001 08 07 12	50457.60	0.00	495.63	0.00	23.86	23.86	1762.57
2001 08 08 12	50457.60	0.09	460.20	0.00	24.31	24.31	1881.32
2001 08 09 12	50112.00	0.53	372.27	0.00	26.24	26.24	2112.42
2001 08 10 12	50112.00	0.19	447.80	0.00	25.58	25.58	1907.55
2001 08 11 12	49782.95	0.18	421.12	0.00	20.47	20.47	1441.11
2001 08 12 12	49766.40	0.32	396.97	0.00	20.18	20.18	1465.90
2001 08 13 12	49708.05	0.38	329.27	0.00	21.12	21.12	1581.28
2001 08 14 12	49420.80	0.08	506.48	0.00	18.96	18.96	1287.46
2001 08 15 12	49420.80	0.00	515.32	0.00	18.12	18.12	1208.90
2001 08 16 12	49075.20	3.49	387.22	0.00	19.45	19.45	1363.63
2001 08 17 12	49075.20	1.62	379.75	0.00	21.18	21.18	1574.28
2001 08 18 12	48729.60	0.35	340.60	0.00	19.71	19.71	1556.81
2001 08 19 12	48729.60	4.19	297.21	0.00	19.09	19.09	1549.54
2001 08 20 12	48400.56	2.05	301.63	0.00	18.68	18.68	1511.35
2001 08 21 12	48384.00	0.25	358.13	0.00	18.61	18.61	1451.66
2001 08 22 12	48185.21	2.61	374.62	0.00	17.22	17.22	1228.14
2001 08 23 12	48038.40	2.51	367.47	0.00	18.17	18.17	1338.95
2001 08 24 12	47980.05	0.48	210.90	0.00	18.95	18.95	1598.32
2001 08 25 12	47692.80	5.66	389.11	0.00	18.24	18.24	1349.50
2001 08 26 12	47692.80	23.16	366.77	0.00	20.17	20.17	1467.35
2001 08 27 12	47347.20	6.04	354.34	0.00	22.22	22.22	1705.07
2001 08 28 12	47347.20	4.59	328.67	0.00	19.83	19.83	1480.52
2001 08 29 12	47001.60	1.18	476.21	0.00	17.62	17.62	1216.87
2001 08 30 12	47001.60	0.00	490.08	0.00	16.78	16.78	1148.84
2001 08 31 12	46656.00	18.21	363.46	0.00	18.57	18.57	1261.18
2001 09 01 12	46656.00	4.79	412.71	0.00	16.61	16.61	1168.74
2001 09 02 12	46310.40	0.00	474.11	0.00	13.32	13.32	967.52
2001 09 03 12	46310.40	0.95	385.02	0.00	14.93	14.93	1062.92
2001 09 04 12	45964.80	1.38	349.28	0.00	16.82	16.82	1175.16
2001 09 05 12	45964.80	0.30	450.78	0.00	16.22	16.22	1114.47
2001 09 06 12	45619.20	0.00	473.09	0.00	14.98	14.98	1056.85
2001 09 07 12	45619.20	1.83	399.29	0.00	18.11	18.11	1259.26
2001 09 08 12	45273.60	0.48	451.63	0.00	21.45	21.45	1572.50
2001 09 09 12	45273.60	2.49	304.75	0.00	23.26	23.26	1837.75
2001 09 10 12	44928.00	1.33	309.15	0.00	21.82	21.82	1639.12
2001 09 11 12	44928.00	0.18	440.41	0.00	16.59	16.59	1160.57
2001 09 12 12	44582.40	0.00	462.76	0.00	15.52	15.52	1062.33
2001 09 13 12	44582.40	6.03	339.97	0.00	16.57	16.57	1118.23
2001 09 14 12	44236.80	1.59	404.30	0.00	14.37	14.37	1003.95
2001 09 15 12	44236.80	0.00	434.36	0.00	10.59	10.59	806.77
2001 09 16 12	43891.20	0.00	455.57	0.00	10.53	10.53	778.11
2001 09 17 12	43891.20	0.00	461.36	0.00	11.91	11.91	823.46
2001 09 18 12	43545.60	0.00	455.78	0.00	13.96	13.96	964.35
2001 09 19 12	43545.60	7.16	299.71	0.00	16.77	16.77	1245.25
2001 09 20 12	43200.00	2.05	296.45	0.00	17.30	17.30	1303.54
2001 09 21 12	43200.00	7.58	299.40	0.00	15.56	15.56	1160.63
2001 09 22 12	42854.40	1.98	384.42	0.00	15.62	15.62	1121.41
2001 09 23 12	42854.40	0.06	389.48	0.00	14.11	14.11	1004.21
2001 09 24 12	42508.80	10.10	309.54	0.00	14.42	14.42	1021.94
2001 09 25 12	42508.80	4.26	224.37	0.00	12.22	12.22	978.69
2001 09 26 12	42163.20	6.49	200.97	0.00	8.39	8.39	841.56
2001 09 27 12	42163.20	13.21	152.84	0.00	7.76	7.76	854.27
2001 09 28 12	41817.60	3.58	204.93	0.00	8.49	8.49	869.45
2001 09 29 12	41817.60	0.14	331.65	0.00	9.21	9.21	825.33
2001 09 30 12	41472.00	0.00	416.51	0.00	8.87	8.87	719.60
2001 10 01 12	41472.00	0.00	417.89	0.00	9.80	9.80	734.79
2001 10 02 12	41126.40	0.00	412.19	0.00	11.99	11.99	865.18
2001 10 03 12	41126.40	0.00	395.33	0.00	15.40	15.40	1073.38
2001 10 04 12	40780.80	0.21	309.15	0.00	16.62	16.62	1164.70
2001 10 05 12	40780.80	8.84	256.85	0.00	14.85	14.85	1090.96
2001 10 06 12	40435.20	7.75	287.46	0.00	11.69	11.69	857.22
2001 10 07 12	40435.20	5.26	246.32	0.00	6.94	6.94	658.83
2001 10 08 12	40089.60	1.04	290.37	0.00	3.34	3.34	527.27
2001 10 09 12	40089.60	0.01	390.47	0.00	3.81	3.81	509.52
2001 10 10 12	39744.00	0.00	404.23	0.00	7.69	7.69	640.69
2001 10 11 12	39744.00	0.08	310.42	0.00	13.22	13.22	996.76
2001 10 12 12	39398.40	1.69	169.49	0.00	14.62	14.62	1269.06
2001 10 13 12	39398.40	0.44	196.95	0.00	15.15	15.15	1397.15
2001 10 14 12	39052.80	14.02	228.72	0.00	17.73	17.73	1415.76
2001 10 15 12	39052.80	3.69	359.70	0.00	12.05	12.05	896.98
2001 10 16 12	38707.20	16.46	257.08	0.00	9.77	9.77	793.97
2001 10 17 12	38707.20	7.53	221.39	0.00	8.13	8.13	748.77
2001 10 18 12	38419.95	0.84	251.51	0.00	4.33	4.33	631.74
2001 10 19 12	38361.60	0.20	259.35	0.00	6.22	6.22	674.94
2001 10 20 12	38214.79	0.92	280.64	0.00	9.18	9.18	770.16
2001 10 21 12	38016.00	19.53	240.48	0.00	11.62	11.62	936.17
2001 10 22 12	37999.44	6.90	238.69	0.00	12.97	12.97	1026.26
2001 10 23 12	37670.40	6.99	191.19	0.00	12.06	12.06	1064.90
2001 10 24 12	37670.40	6.24	204.47	0.00	14.47	14.47	1226.15
2001 10 25 12	37324.80	1.73	229.32	0.00	13.43	13.43	1046.36
2001 10 26 12	37324.80	12.25	166.93	0.00	7.50	7.50	753.89
2001 10 27 12	36979.20	3.26	123.70	0.00	2.77	2.77	606.30
2001 10 28 12	36979.20	0.02	148.93	0.00	1.77	1.77	571.23
2001 10 29 12	36691.95	0.00	259.92	0.00	1.40	1.40	530.20
2001 10 30 12	36633.60	0.25	230.60	0.00	5.21	5.21	640.15
2001 10 31 12	36617.05	0.08	233.63	0.00	7.84	7.84	784.51
2001 11 01 12	36288.00	0.00	282.52	0.00	9.08	9.08	856.53
2001 11 02 12	36288.00	4.12	219.61	0.00	11.89	11.89	941.52
2001 11 03 12	35942.40	1.15	265.10	0.00	10.74	10.74	806.84
2001 11 04 12	35942.40	0.06	264.76	0.00	6.98	6.98	642.52
2001 11 05 12	35795.58	0.01	300.99	0.00	6.36	6.36	594.17
2001 11 06 12	35596.80	0.00	239.62	0.00	3.24	3.24	536.84
2001 11 07 12	35596.80	0.00	280.69	0.00	4.39	4.39	615.08
2001 11 08 12	35251.20	4.61	194.66	0.00	8.34	8.34	780.80
2001 11 09 12	35251.20	1.23	259.68	0.00	8.41	8.41	718.93
2001 11 10 12	35173.07	0.00	244.11	0.00	4.74	4.74	596.21
2001 11 11 12	34905.60	0.00	269.62	0.00	4.62	4.62	575.23
2001 11 12 12	34905.60	0.00	218.80	0.00	1.32	1.32	472.64
2001 11 13 12	34687.54	0.00	276.82	0.00	1.60	1.60	469.60
2001 11 14 12	34560.00	0.02	252.74	0.00	4.72	4.72	565.38
2001 11 15 12	34560.00	0.28	207.63	0.00	8.90	8.90	795.03
2001 11 16 12	34272.75	0.07	209.40	0.00	12.25	12.25	1001.35
2001 11 17 12	34214.40	0.00	264.37	0.00	7.77	7.77	699.87
2001 11 18 12	34214.40	0.00	258.58	0.00	5.29	5.29	581.86
2001 11 19 12	33996.34	11.11	201.91	0.00	6.42	6.42	602.60
2001 11 20 12	33868.80	3.55	194.84	0.00	7.37	7.37	612.73
2001 11 21 12	33868.80	0.16	200.99	0.00	2.31	2.31	495.76
2001 11 22 12	33790.67	0.00	229.02	0.00	1.80	1.80	500.72
2001 11 23 12	33523.20	0.00	256.02	0.00	3.85	3.85	533.68
2001 11 24 12	33523.20	12.24	191.76	0.00	6.57	6.57	631.18
2001 11 25 12	33523.20	4.41	173.07	0.00	9.83	9.83	823.27
2001 11 26 12	33305.14	0.33	174.50	0.00	9.55	9.55	855.29
2001 11 27 12	33177.60	0.84	156.27	0.00	6.44	6.44	725.58
2001 11 28 12	33177.60	9.87	135.37	0.00	7.84	7.84	809.60
2001 11 29 12	33177.60	7.16	109.88	0.00	7.62	7.62	869.26
2001 11 30 12	33030.79	6.26	100.13	0.00	11.05	11.05	1076.77
2001 12 01 12	32832.00	1.33	179.24	0.00	10.53	10.53	965.82
2001 12 02 12	32832.00	0.00	106.84	0.00	6.64	6.64	773.01
2001 12 03 12	32832.00	0.00	225.41	0.00	4.15	4.15	601.51
2001 12 04 12	32832.00	0.88	175.90	0.00	6.80	6.80	665.91
2001 12 05 12	32685.18	0.49	167.28	0.00	10.00	10.00	860.09
2001 12 06 12	32544.75	0.36	153.77	0.00	13.58	13.58	1067.86
2001 12 07 12	32486.40	0.08	188.25	0.00	9.07	9.07	805.67
2001 12 08 12	32486.40	0.93	164.00	0.00	3.25	3.25	526.38
2001 12 09 12	32486.40	0.25	135.35	0.00	0.67	0.67	469.79
2001 12 10 12	32486.40	0.00	201.45	0.00	-0.94	-0.94	409.12
2001 12 11 12	32486.40	0.00	219.41	0.00	0.30	0.30	418.45
2001 12 12 12	32408.27	2.62	176.59	0.00	2.00	2.00	460.46
2001 12 13 12	32339.58	1.84	164.13	0.00	3.82	3.82	578.91
2001 12 14 12	32268.34	9.16	123.02	0.00	7.53	7.53	774.43
2001 12 15 12	32142.72	2.33	208.67	0.00	4.81	4.81	597.51
2001 12 16 12	32142.72	5.16	149.37	0.00	0.50	0.50	446.52
2001 12 17 12	32140.80	18.24	128.59	0.00	1.21	1.21	517.85
2001 12 18 12	32140.80	6.03	90.13	0.00	3.45	3.45	635.28
2001 12 19 12	32140.80	2.75	87.48	0.00	2.07	2.07	584.56
2001 12 20 12	32140.80	7.50	148.25	0.00	1.67	1.67	516.30
2001 12 21 12	32140.80	3.23	47.38	0.00	-0.55	-0.55	468.49
2001 12 22 12	32140.80	3.33	144.92	0.00	-2.32	-2.32	398.67
2001 12 23 12	32140.80	5.83	169.28	0.00	-1.43	-1.43	397.69
2001 12 24 12	32140.80	1.57	175.43	0.00	-0.18	-0.18	418.40
2001 12 25 12	32140.80	0.07	175.09	0.00	-4.00	-4.00	320.23
2001 12 26 12	32142.72	0.30	178.90	0.00	-7.38	-7.38	246.84
2001 12 27 12	32199.15	0.72	159.58	0.00	-7.92	-7.92	243.91
2001 12 28 12	32268.34	1.20	156.55	0.00	-7.12	-7.12	267.06
2001 12 29 12	32339.58	4.11	153.70	0.00	-6.31	-6.31	279.42
2001 12 30 12	32469.84	1.86	163.49	0.00	-8.03	-8.03	241.53
2001 12 31 12	32486.40	0.92	124.97	0.00	-8.77	-8.77	238.60
2002 01 01 12	32486.40	0.91	127.61	0.00	-8.42	-8.42	248.64
2002 01 02 12	32486.40	0.21	207.83	0.00	-8.03	-8.03	244.48
2002 01 03 12	32486.40	0.01	225.79	0.00	-6.47	-6.47	277.59
2002 01 04 12	32486.40	0.00	183.40	0.00	-4.66	-4.66	335.67
2002 01 05 12	32613.94	0.00	215.21	0.00	-3.11	-3.11	380.48
2002 01 06 12	32815.44	5.26	180.68	0.00	-1.20	-1.20	430.47
2002 01 07 12	32832.00	1.79	122.27	0.00	-1.79	-1.79	421.01
2002 01 08 12	32832.00	0.20	200.10	0.00	-4.53	-4.53	334.78
2002 01 09 12	32832.00	0.04	227.56	0.00	-3.40	-3.40	373.68
2002 01 10 12	32890.35	0.00	240.24	0.00	0.70	0.70	505.45
2002 01 11 12	33161.05	0.33	201.77	0.00	2.10	2.10	540.21
2002 01 12 12	33177.60	2.66	143.01	0.00	0.60	0.60	509.36
2002 01 13 12	33177.60	1.70	192.50	0.00	0.12	0.12	465.23
2002 01 14 12	33179.52	1.74	208.67	0.00	-2.61	-2.61	372.67
2002 01 15 12	33445.07	2.34	229.50	0.00	-0.95	-0.95	400.83
2002 01 16 12	33523.20	1.54	169.00	0.00	-1.17	-1.17	420.28
2002 01 17 12	33523.20	1.28	176.78	0.00	-2.01	-2.01	401.63
2002 01 18 12	33581.55	1.89	206.55	0.00	-3.46	-3.46	337.61
2002 01 19 12	33868.80	2.72	234.98	0.00	-6.22	-6.22	255.08
2002 01 20 12	33868.80	0.87	232.36	0.00	-6.84	-6.84	245.88
2002 01 21 12	33868.80	1.18	236.75	0.00	-5.10	-5.10	297.88
2002 01 22 12	34197.84	0.29	267.10	0.00	-1.36	-1.36	406.80
2002 01 23 12	34214.40	0.31	247.18	0.00	1.18	1.18	480.87
2002 01 24 12	34214.40	2.99	170.15	0.00	4.36	4.36	619.44
2002 01 25 12	34543.44	0.77	311.06	0.00	1.16	1.16	465.16
2002 01 26 12	34560.00	0.00	301.24	0.00	1.11	1.11	453.89
2002 01 27 12	34560.00	0.00	312.10	0.00	3.32	3.32	530.03
2002 01 28 12	34905.60	0.00	293.58	0.00	7.28	7.28	680.17
2002 01 29 12	34905.60	11.74	225.60	0.00	7.15	7.15	688.15
2002 01 30 12	34907.52	10.47	204.65	0.00	7.49	7.49	714.84
2002 01 31 12	35251.20	23.93	163.39	0.00	2.90	2.90	575.23
2002 02 01 12	35251.20	7.14	224.00	0.00	3.72	3.72	555.51
2002 02 02 12	35449.98	0.77	255.73	0.00	2.56	2.56	415.85
2002 02 03 12	35596.80	2.20	227.21	0.00	-2.25	-2.25	327.18
2002 02 04 12	35596.80	2.08	245.15	0.00	-4.02	-4.02	298.05
2002 02 05 12	35942.40	0.40	335.45	0.00	-7.53	-7.53	223.95
2002 02 06 12	35942.40	0.00	320.98	0.00	-5.45	-5.45	288.05
2002 02 07 12	36209.87	0.00	263.96	0.00	-1.08	-1.08	424.17
2002 02 08 12	36288.00	0.00	338.91	0.00	1.45	1.45	463.46
2002 02 09 12	36289.92	0.00	349.36	0.00	1.77	1.77	442.40
2002 02 10 12	36633.60	8.84	267.03	0.00	2.40	2.40	437.54
2002 02 11 12	36633.60	2.72	312.80	0.00	-0.51	-0.51	326.04
2002 02 12 12	36979.20	0.88	249.79	0.00	-3.76	-3.76	289.26
2002 02 13 12	36979.20	0.21	342.49	0.00	-3.95	-3.95	286.61
2002 02 14 12	37246.67	0.00	359.78	0.00	-7.13	-7.13	233.20
2002 02 15 12	37324.80	0.29	297.82	0.00	-2.50	-2.50	359.57
2002 02 16 12	37383.15	2.14	229.63	0.00	2.41	2.41	512.08
2002 02 17 12	37670.40	0.70	251.04	0.00	-0.46	-0.46	388.24
2002 02 18 12	37670.40	0.04	358.70	0.00	-6.83	-6.83	229.77
2002 02 19 12	38016.00	0.25	317.90	0.00	-4.21	-4.21	283.54
2002 02 20 12	38016.00	2.52	284.65	0.00	2.13	2.13	483.19
2002 02 21 12	38361.60	2.28	228.55	0.00	6.71	6.71	666.68
2002 02 22 12	38361.60	0.59	211.37	0.00	1.36	1.36	473.79
2002 02 23 12	38707.20	0.04	216.73	0.00	-3.27	-3.27	350.10
2002 02 24 12	38707.20	0.00	360.93	0.00	-2.58	-2.58	347.87
2002 02 25 12	39052.80	0.00	382.61	0.00	2.82	2.82	469.90
2002 02 26 12	39052.80	5.35	286.11	0.00	6.08	6.08	534.91
2002 02 27 12	39398.40	4.91	327.94	0.00	0.30	0.30	338.31
2002 02 28 12	39398.40	0.95	173.75	0.00	-4.71	-4.71	295.74
2002 03 01 12	39727.44	0.01	273.16	0.00	-5.56	-5.56	302.93
2002 03 02 12	39744.00	5.35	321.93	0.00	-1.95	-1.95	362.76
2002 03 03 12	40011.47	3.70	322.45	0.00	2.26	2.26	428.50
2002 03 04 12	40089.60	1.07	381.15	0.00	-2.70	-2.70	259.63
2002 03 05 12	40288.38	0.39	263.13	0.00	-8.68	-8.68	198.90
2002 03 06 12	40435.20	0.07	446.14	0.00	-5.43	-5.43	273.74
2002 03 07 12	40562.74	0.00	440.13	0.00	2.44	2.44	445.73
2002 03 08 12	40780.80	0.00	445.29	0.00	4.42	4.42	553.12
2002 03 09 12	40908.34	3.47	335.56	0.00	11.15	11.15	774.72
2002 03 10 12	41126.40	2.27	364.71	0.00	5.03	5.03	410.49
2002 03 11 12	41184.75	0.68	255.93	0.00	-3.60	-3.60	284.24
2002 03 12 12	41472.00	0.12	377.78	0.00	-3.47	-3.47	339.30
2002 03 13 12	41473.92	0.01	392.93	0.00	2.85	2.85	523.01
2002 03 14 12	41817.60	0.00	448.04	0.00	6.12	6.12	597.07
2002 03 15 12	41819.52	7.86	335.39	0.00	8.61	8.61	643.07
2002 03 16 12	42163.20	2.23	425.73	0.00	7.64	7.64	536.05
2002 03 17 12	42165.12	0.51	276.71	0.00	1.30	1.30	423.49
2002 03 18 12	42508.80	0.22	245.20	0.00	0.78	0.78	478.40
2002 03 19 12	42508.80	2.09	235.52	0.00	2.26	2.26	535.87
2002 03 20 12	42854.40	6.50	250.85	0.00	2.94	2.94	539.70
2002 03 21 12	42854.40	4.87	256.00	0.00	1.56	1.56	452.33
2002 03 22 12	43200.00	2.58	383.23	0.00	-3.47	-3.47	260.52
2002 03 23 12	43543.68	0.45	348.26	0.00	-6.04	-6.04	252.24
2002 03 24 12	43545.60	3.61	356.01	0.00	-2.17	-2.17	333.47
2002 03 25 12	43889.28	5.69	334.08	0.00	-1.25	-1.25	351.48
2002 03 26 12	43891.20	9.50	233.40	0.00	-2.18	-2.18	378.70
2002 03 27 12	44234.88	2.23	318.64	0.00	-0.45	-0.45	415.78
2002 03 28 12	44236.80	0.04	439.90	0.00	-2.38	-2.38	335.86
2002 03 29 12	44580.48	10.52	402.03	0.00	1.20	1.20	422.74
2002 03 30 12	44582.40	2.77	512.36	0.00	8.18	8.18	606.03
2002 03 31 12	44926.08	2.94	396.56	0.00	5.96	5.96	531.46
2002 04 01 12	44928.00	1.00	379.89	0.00	5.42	5.42	538.43
2002 04 02 12	45215.25	17.83	296.43	0.00	2.90	2.90	521.35
2002 04 03 12	45273.60	5.14	357.74	0.00	4.38	4.38	537.43
2002 04 04 12	45491.66	0.24	264.67	0.00	-0.25	-0.25	415.21
2002 04 05 12	45619.20	4.04	279.24	0.00	-2.08	-2.08	370.17
2002 04 06 12	45837.26	1.06	372.33	0.00	-2.14	-2.14	355.00
2002 04 07 12	45964.80	0.10	340.75	0.00	-2.37	-2.37	352.16
2002 04 08 12	46111.62	4.35	405.49	0.00	1.80	1.80	481.08
2002 04 09 12	46310.40	13.22	365.42	0.00	10.22	10.22	771.63
2002 04 10 12	46388.53	3.18	534.92	0.00	7.74	7.74	594.58
2002 04 11 12	46656.00	0.00	531.75	0.00	7.38	7.38	622.74
2002 04 12 12	46672.56	4.58	395.42	0.00	12.53	12.53	860.50
2002 04 13 12	47001.60	10.48	383.59	0.00	14.24	14.24	959.23
2002 04 14 12	47001.60	14.33	317.00	0.00	11.73	11.73	965.30
2002 04 15 12	47347.20	8.13	317.87	0.00	12.97	12.97	1105.01
2002 04 16 12	47347.20	1.32	475.88	0.00	16.54	16.54	1278.69
2002 04 17 12	47692.80	0.01	458.01	0.00	20.18	20.18	1415.18
2002 04 18 12	47692.80	0.00	508.51	0.00	20.17	20.17	1371.62
2002 04 19 12	48038.40	3.67	376.57	0.00	20.69	20.69	1390.59
2002 04 20 12	48038.40	4.00	395.17	0.00	17.49	17.49	1058.82
2002 04 21 12	48384.00	2.54	360.58	0.00	9.37	9.37	725.73
2002 04 22 12	48384.00	1.05	194.42	0.00	4.21	4.21	602.68
2002 04 23 12	48729.60	0.15	413.42	0.00	0.77	0.77	455.48
2002 04 24 12	48729.60	2.02	399.12	0.00	2.14	2.14	484.79
2002 04 25 12	49016.85	2.55	405.94	0.00	7.80	7.80	620.40
2002 04 26 12	49075.20	0.53	471.43	0.00	4.96	4.96	523.03
2002 04 27 12	49153.33	8.51	406.25	0.00	2.88	2.88	501.39
2002 04 28 12	49420.80	12.86	369.33	0.00	7.95	7.95	690.85
2002 04 29 12	49420.80	3.45	426.65	0.00	9.02	9.02	612.06
2002 04 30 12	49766.40	0.76	178.33	0.00	4.77	4.77	595.50
2002 05 01 12	49766.40	5.47	412.95	0.00	4.73	4.73	593.52
2002 05 02 12	50110.08	1.67	392.37	0.00	9.44	9.44	750.24
2002 05 03 12	50112.00	0.19	443.91	0.00	8.29	8.29	622.61
2002 05 04 12	50190.13	0.03	532.59	0.00	4.18	4.18	477.81
2002 05 05 12	50457.60	0.00	575.59	0.00	7.13	7.13	572.36
2002 05 06 12	50457.60	0.61	416.11	0.00	12.68	12.68	853.08
2002 05 07 12	50803.20	1.67	418.65	0.00	15.43	15.43	1013.51
2002 05 08 12	50803.20	4.75	401.76	0.00	12.74	12.74	891.06
2002 05 09 12	50950.02	7.97	386.16	0.00	13.58	13.58	946.65
2002 05 10 12	51148.80	1.80	491.75	0.00	13.45	13.45	843.10
2002 05 11 12	51148.80	6.36	421.56	0.00	8.28	8.28	643.50
2002 05 12 12	51492.48	32.45	389.34	0.00	9.93	9.93	808.31
2002 05 13 12	51494.40	28.51	250.72	0.00	11.94	11.94	992.05
2002 05 14 12	51494.40	16.48	366.41	0.00	9.37	9.37	791.96
2002 05 15 12	51840.00	2.94	390.80	0.00	6.95	6.95	713.25
2002 05 16 12	51840.00	11.93	408.79	0.00	9.95	9.95	803.61
2002 05 17 12	51856.56	10.30	418.32	0.00	12.05	12.05	808.11
2002 05 18 12	52185.60	2.22	344.72	0.00	7.25	7.25	646.93
2002 05 19 12	52185.60	0.09	451.17	0.00	3.54	3.54	530.44
2002 05 20 12	52202.16	0.00	525.29	0.00	3.34	3.34	500.26
2002 05 21 12	52531.20	0.00	503.25	0.00	3.59	3.59	513.96
2002 05 22 12	52531.20	0.00	543.72	0.00	4.99	4.99	566.79
2002 05 23 12	52531.20	0.14	460.80	0.00	9.42	9.42	760.87
2002 05 24 12	52818.45	0.28	390.28	0.00	15.29	15.29	1029.55
2002 05 25 12	52876.80	12.09	432.46	0.00	11.38	11.38	766.61
2002 05 26 12	52876.80	3.16	530.68	0.00	10.83	10.83	786.21
2002 05 27 12	52954.93	0.00	560.02	0.00	11.38	11.38	827.88
2002 05 28 12	53220.48	0.00	568.59	0.00	15.50	15.50	1006.17
2002 05 29 12	53222.40	6.80	402.75	0.00	17.48	17.48	1263.18
2002 05 30 12	53222.40	2.18	396.92	0.00	19.96	19.96	1541.40
2002 05 31 12	53238.95	0.71	313.16	0.00	20.22	20.22	1590.60
2002 06 01 12	53509.65	0.16	543.20	0.00	18.36	18.36	1257.78
2002 06 02 12	53568.00	0.00	536.41	0.00	18.03	18.03	1138.88
2002 06 03 12	53568.00	0.26	474.10	0.00	12.62	12.62	885.46
2002 06 04 12	53568.00	18.47	371.83	0.00	12.90	12.90	1060.39
2002 06 05 12	53584.56	22.39	398.87	0.00	18.56	18.56	1383.69
2002 06 06 12	53786.06	5.91	382.39	0.00	19.31	19.31	1334.99
2002 06 07 12	53913.60	0.34	470.78	0.00	11.97	11.97	949.04
2002 06 08 12	53913.60	0.00	555.99	0.00	14.79	14.79	1062.97
2002 06 09 12	53913.60	0.00	544.59	0.00	18.37	18.37	1270.92
2002 06 10 12	53913.60	0.00	533.76	0.00	19.62	19.62	1423.80
2002 06 11 12	53913.60	1.39	385.04	0.00	21.38	21.38	1657.25
2002 06 12 12	53930.16	1.04	356.44	0.00	22.05	22.05	1760.55
2002 06 13 12	54060.42	2.52	300.99	0.00	20.20	20.20	1703.04
2002 06 14 12	54131.66	11.93	275.17	0.00	19.41	19.41	1642.10
2002 06 15 12	54200.85	12.99	302.69	0.00	17.05	17.05	1389.00
2002 06 16 12	54257.28	8.98	251.90	0.00	13.55	13.55	1173.83
2002 06 17 12	54259.20	2.59	326.51	0.00	12.64	12.64	1084.77
2002 06 18 12	54259.20	0.24	513.21	0.00	14.10	14.10	1066.11
2002 06 19 12	54259.20	0.00	554.45	0.00	15.66	15.66	1094.11
2002 06 20 12	54259.20	0.00	554.13	0.00	18.20	18.20	1253.92
2002 06 21 12	54259.20	0.08	502.62	0.00	20.56	20.56	1462.39
2002 06 22 12	54259.20	0.02	523.10	0.00	21.79	21.79	1637.30
2002 06 23 12	54259.20	0.00	477.51	0.00	23.35	23.35	1885.49
2002 06 24 12	54259.20	0.10	416.70	0.00	23.80	23.80	1973.95
2002 06 25 12	54259.20	0.03	484.80	0.00	23.84	23.84	1934.60
2002 06 26 12	54257.28	9.28	366.50	0.00	24.15	24.15	1981.76
2002 06 27 12	54257.28	10.83	349.16	0.00	23.54	23.54	1941.63
2002 06 28 12	54131.66	2.22	421.75	0.00	22.12	22.12	1732.45
2002 06 29 12	54060.42	0.00	513.90	0.00	19.12	19.12	1436.75
2002 06 30 12	53991.73	0.00	523.94	0.00	20.50	20.50	1554.53
2002 07 01 12	53913.60	0.00	501.31	0.00	22.85	22.85	1818.72
2002 07 02 12	53913.60	0.00	473.87	0.00	24.54	24.54	2005.99
2002 07 03 12	53913.60	0.00	494.37	0.00	24.82	24.82	1998.83
2002 07 04 12	53913.60	0.00	480.23	0.00	24.80	24.80	1906.32
2002 07 05 12	53913.60	0.00	540.95	0.00	21.44	21.44	1444.16
2002 07 06 12	53855.25	0.00	525.93	0.00	18.06	18.06	1241.12
2002 07 07 12	53714.82	0.00	542.38	0.00	17.58	17.58	1222.77
2002 07 08 12	53568.00	0.04	437.50	0.00	19.07	19.07	1409.49
2002 07 09 12	53568.00	13.03	351.77	0.00	22.56	22.56	1773.12
2002 07 10 12	53568.00	3.43	384.45	0.00	19.48	19.48	1501.43
2002 07 11 12	53568.00	0.00	554.89	0.00	15.53	15.53	1051.62
2002 07 12 12	53369.21	0.00	558.06	0.00	15.16	15.16	1006.41
2002 07 13 12	53222.40	0.00	562.39	0.00	16.97	16.97	1115.10
2002 07 14 12	53222.40	0.00	535.89	0.00	19.02	19.02	1299.64
2002 07 15 12	53222.40	0.00	534.48	0.00	20.55	20.55	1407.95
2002 07 16 12	53094.86	0.00	527.31	0.00	21.19	21.19	1484.30
2002 07 17 12	52876.80	0.00	511.77	0.00	22.04	22.04	1609.15
2002 07 18 12	52876.80	0.01	471.82	0.00	23.35	23.35	1741.23
2002 07 19 12	52876.80	0.00	468.89	0.00	23.83	23.83	1844.70
2002 07 20 12	52609.33	0.20	372.48	0.00	22.39	22.39	1764.06
2002 07 21 12	52531.20	7.52	387.63	0.00	21.27	21.27	1667.44
2002 07 22 12	52531.20	9.32	359.89	0.00	24.37	24.37	2011.76
2002 07 23 12	52403.66	10.92	329.33	0.00	25.08	25.08	2014.85
2002 07 24 12	52185.60	2.37	476.99	0.00	19.13	19.13	1413.07
2002 07 25 12	52185.60	1.12	371.97	0.00	17.41	17.41	1354.75
2002 07 26 12	52127.25	3.73	323.60	0.00	19.46	19.46	1632.34
2002 07 27 12	51840.00	10.77	293.64	0.00	21.49	21.49	1884.31
2002 07 28 12	51840.00	48.67	309.46	0.00	22.62	22.62	2022.13
2002 07 29 12	51712.46	23.59	286.84	0.00	24.21	24.21	2238.45
2002 07 30 12	51494.40	3.05	337.66	0.00	25.09	25.09	2195.69
2002 07 31 12	51494.40	0.01	466.13	0.00	22.75	22.75	1847.95
2002 08 01 12	51226.93	0.00	482.56	0.00	23.30	23.30	1881.57
2002 08 02 12	51148.80	0.00	478.46	0.00	24.58	24.58	1958.91
2002 08 03 12	51148.80	0.00	482.63	0.00	23.63	23.63	1817.20
2002 08 04 12	50803.20	1.64	384.44	0.00	22.07	22.07	1718.10
2002 08 05 12	50803.20	0.45	421.24	0.00	23.98	23.98	1873.01
2002 08 06 12	50604.42	0.01	506.96	0.00	19.93	19.93	1404.64
2002 08 07 12	50457.60	0.00	480.14	0.00	15.73	15.73	1133.54
2002 08 08 12	50457.60	0.00	519.00	0.00	14.75	14.75	1050.70
2002 08 09 12	50112.00	0.00	534.04	0.00	15.49	15.49	1066.82
2002 08 10 12	50112.00	0.00	531.49	0.00	17.41	17.41	1201.09
2002 08 11 12	49782.95	0.00	518.00	0.00	20.48	20.48	1444.13
2002 08 12 12	49766.40	3.70	369.91	0.00	22.04	22.04	1657.33
2002 08 13 12	49708.05	2.01	381.98	0.00	23.04	23.04	1789.57
2002 08 14 12	49420.80	5.40	358.48	0.00	23.85	23.85	1902.04
2002 08 15 12	49420.80	3.63	341.96	0.00	24.60	24.60	2026.44
2002 08 16 12	49075.20	8.71	288.05	0.00	24.20	24.20	2103.13
2002 08 17 12	49075.20	2.68	326.00	0.00	23.67	23.67	2065.46
2002 08 18 12	48729.60	0.47	322.52	0.00	23.91	23.91	1984.44
2002 08 19 12	48729.60	1.81	373.82	0.00	19.74	19.74	1457.77
2002 08 20 12	48400.56	0.46	421.12	0.00	18.82	18.82	1397.61
2002 08 21 12	48384.00	0.00	487.68	0.00	18.13	18.13	1330.06
2002 08 22 12	48185.21	6.26	370.73	0.00	19.86	19.86	1466.48
2002 08 23 12	48038.40	7.29	331.48	0.00	21.24	21.24	1682.11
2002 08 24 12	47980.05	3.09	177.18	0.00	19.45	19.45	1703.27
2002 08 25 12	47692.80	0.42	421.60	0.00	17.98	17.98	1438.92
2002 08 26 12	47692.80	0.00	468.81	0.00	18.32	18.32	1351.18
2002 08 27 12	47347.20	0.00	473.89	0.00	18.81	18.81	1347.07
2002 08 28 12	47347.20	0.01	443.44	0.00	18.26	18.26	1341.95
2002 08 29 12	47001.60	0.00	441.28	0.00	18.68	18.68	1349.67
2002 08 30 12	47001.60	0.00	482.74	0.00	16.29	16.29	1146.33
2002 08 31 12	46656.00	0.00	489.20	0.00	17.56	17.56	1202.60
2002 09 01 12	46656.00	0.00	481.42	0.00	18.71	18.71	1315.99
2002 09 02 12	46310.40	1.84	297.16	0.00	19.31	19.31	1563.09
2002 09 03 12	46310.40	3.75	311.20	0.00	21.24	21.24	1698.60
2002 09 04 12	45964.80	0.86	463.82	0.00	21.22	21.22	1502.95
2002 09 05 12	45964.80	0.00	431.08	0.00	19.18	19.18	1347.03
2002 09 06 12	45619.20	0.00	467.62	0.00	17.06	17.06	1183.12
2002 09 07 12	45619.20	0.00	476.26	0.00	18.38	18.38	1226.93
2002 09 08 12	45273.60	0.00	476.61	0.00	20.12	20.12	1316.23
2002 09 09 12	45273.60	0.00	469.39	0.00	21.33	21.33	1402.08
2002 09 10 12	44928.00	0.27	389.62	0.00	22.21	22.21	1475.92
2002 09 11 12	44928.00	0.08	438.13	0.00	21.65	21.65	1381.72
2002 09 12 12	44582.40	0.00	457.14	0.00	14.51	14.51	969.75
2002 09 13 12	44582.40	0.00	467.30	0.00	14.59	14.59	980.13
2002 09 14 12	44236.80	24.26	346.64	0.00	16.94	16.94	1149.63
2002 09 15 12	44236.80	27.99	284.38	0.00	17.90	17.90	1391.89
2002 09 16 12	43891.20	6.14	197.18	0.00	18.45	18.45	1575.36
2002 09 17 12	43891.20	0.12	375.15	0.00	17.13	17.13	1359.35
2002 09 18 12	43545.60	0.00	417.46	0.00	17.34	17.34	1336.69
2002 09 19 12	43545.60	1.95	269.63	0.00	20.03	20.03	1647.94
2002 09 20 12	43200.00	0.81	268.13	0.00	20.99	20.99	1787.35
2002 09 21 12	43200.00	0.22	305.99	0.00	22.54	22.54	1829.08
2002 09 22 12	42854.40	1.17	273.12	0.00	18.73	18.73	1428.87
2002 09 23 12	42854.40	0.30	421.94	0.00	14.77	14.77	1034.27
2002 09 24 12	42508.80	0.00	423.85	0.00	12.47	12.47	882.23
2002 09 25 12	42508.80	0.00	431.60	0.00	12.90	12.90	907.94
2002 09 26 12	42163.20	6.45	290.48	0.00	14.45	14.45	1067.77
2002 09 27 12	42163.20	31.34	238.67	0.00	13.62	13.62	1138.20
2002 09 28 12	41817.60	7.80	207.90	0.00	14.32	14.32	1242.18
2002 09 29 12	41817.60	0.00	395.28	0.00	12.84	12.84	1024.47
2002 09 30 12	41472.00	0.00	400.42	0.00	15.08	15.08	1131.98
2002 10 01 12	41472.00	0.00	365.29	0.00	18.31	18.31	1415.13
2002 10 02 12	41126.40	7.04	257.47	0.00	19.32	19.32	1559.89
2002 10 03 12	41126.40	2.90	246.47	0.00	19.20	19.20	1577.17
2002 10 04 12	40780.80	3.50	173.57	0.00	17.73	17.73	1561.92
2002 10 05 12	40780.80	1.05	247.82	0.00	18.14	18.14	1438.96
2002 10 06 12	40435.20	0.05	365.65	0.00	11.78	11.78	949.34
2002 10 07 12	40435.20	0.00	348.52	0.00	12.56	12.56	944.57
2002 10 08 12	40089.60	0.00	383.88	0.00	7.89	7.89	687.46
2002 10 09 12	40089.60	0.00	379.41	0.00	7.91	7.91	698.24
2002 10 10 12	39744.00	0.00	383.09	0.00	10.39	10.39	812.11
2002 10 11 12	39744.00	0.00	348.95	0.00	12.02	12.02	970.29
2002 10 12 12	39398.40	1.12	154.74	0.00	13.40	13.40	1207.01
2002 10 13 12	39398.40	3.02	156.81	0.00	13.24	13.24	1152.85
2002 10 14 12	39052.80	0.72	372.30	0.00	6.86	6.86	665.92
2002 10 15 12	39052.80	3.48	272.44	0.00	6.01	6.01	640.17
2002 10 16 12	38707.20	19.96	220.42	0.00	8.76	8.76	806.37
2002 10 17 12	38707.20	6.81	200.88	0.00	6.51	6.51	719.94
2002 10 18 12	38419.95	7.69	215.09	0.00	4.67	4.67	654.74
2002 10 19 12	38361.60	11.70	219.81	0.00	6.19	6.19	716.14
2002 10 20 12	38214.79	2.58	278.80	0.00	7.04	7.04	733.97
2002 10 21 12	38016.00	0.00	302.34	0.00	6.05	6.05	675.29
2002 10 22 12	37999.44	0.00	301.69	0.00	5.56	5.56	645.67
2002 10 23 12	37670.40	0.17	274.92	0.00	6.01	6.01	636.74
2002 10 24 12	37670.40	0.08	283.77	0.00	3.07	3.07	517.52
2002 10 25 12	37324.80	14.14	204.00	0.00	1.89	1.89	529.03
2002 10 26 12	37324.80	5.29	158.79	0.00	4.60	4.60	693.98
2002 10 27 12	36979.20	0.49	143.02	0.00	6.48	6.48	784.42
2002 10 28 12	36979.20	0.02	207.36	0.00	5.19	5.19	683.20
2002 10 29 12	36691.95	2.98	227.55	0.00	2.22	2.22	512.08
2002 10 30 12	36633.60	0.83	238.37	0.00	1.14	1.14	467.88
2002 10 31 12	36617.05	4.01	198.63	0.00	0.00	0.00	444.04
2002 11 01 12	36288.00	7.13	219.55	0.00	1.32	1.32	477.85
2002 11 02 12	36288.00	2.56	132.89	0.00	1.23	1.23	512.87
2002 11 03 12	35942.40	0.88	111.22	0.00	0.21	0.21	508.51
2002 11 04 12	35942.40	0.54	186.90	0.00	0.67	0.67	506.86
2002 11 05 12	35795.58	4.56	130.29	0.00	2.15	2.15	578.96
2002 11 06 12	35596.80	2.31	121.19	0.00	2.44	2.44	598.86
2002 11 07 12	35596.80	0.30	201.12	0.00	1.36	1.36	541.14
2002 11 08 12	35251.20	0.43	225.04	0.00	2.62	2.62	588.71
2002 11 09 12	35251.20	0.99	232.07	0.00	9.11	9.11	870.90
2002 11 10 12	35173.07	18.72	160.05	0.00	12.37	12.37	1106.52
2002 11 11 12	34905.60	5.00	173.77	0.00	12.48	12.48	1087.64
2002 11 12 12	34905.60	1.03	194.87	0.00	7.99	7.99	787.82
2002 11 13 12	34687.54	0.26	141.93	0.00	5.63	5.63	717.46
2002 11 14 12	34560.00	0.00	252.12	0.00	4.10	4.10	634.70
2002 11 15 12	34560.00	5.55	202.34	0.00	5.36	5.36	627.73
2002 11 16 12	34272.75	9.07	178.39	0.00	3.70	3.70	575.85
2002 11 17 12	34214.40	6.30	70.43	0.00	1.44	1.44	556.38
2002 11 18 12	34214.40	1.24	138.93	0.00	0.23	0.23	515.56
2002 11 19 12	33996.34	1.63	141.71	0.00	-0.27	-0.27	491.03
2002 11 20 12	33868.80	0.42	216.73	0.00	2.15	2.15	569.53
2002 11 21 12	33868.80	3.96	194.91	0.00	4.91	4.91	616.70
2002 11 22 12	33790.67	7.75	165.95	0.00	4.62	4.62	612.69
2002 11 23 12	33523.20	1.92	168.15	0.00	1.38	1.38	510.63
2002 11 24 12	33523.20	0.41	101.90	0.00	0.84	0.84	534.91
2002 11 25 12	33523.20	0.44	131.40	0.00	1.86	1.86	567.79
2002 11 26 12	33305.14	2.84	101.19	0.00	0.06	0.06	494.68
2002 11 27 12	33177.60	2.66	132.92	0.00	-1.84	-1.84	410.54
2002 11 28 12	33177.60	1.90	197.42	0.00	-4.45	-4.45	322.72
2002 11 29 12	33177.60	1.40	205.57	0.00	-4.03	-4.03	353.85
2002 11 30 12	33030.79	8.01	189.61	0.00	0.45	0.45	465.49
2002 12 01 12	32832.00	3.64	213.84	0.00	-2.50	-2.50	348.76
2002 12 02 12	32832.00	3.97	178.00	0.00	-5.24	-5.24	280.86
2002 12 03 12	32832.00	1.73	232.45	0.00	-10.43	-10.43	160.91
2002 12 04 12	32832.00	0.34	214.25	0.00	-10.64	-10.64	168.97
2002 12 05 12	32685.18	1.98	208.82	0.00	-8.40	-8.40	226.10
2002 12 06 12	32544.75	0.72	160.92	0.00	-5.64	-5.64	292.98
2002 12 07 12	32486.40	0.06	249.80	0.00	-6.53	-6.53	273.67
2002 12 08 12	32486.40	1.23	209.11	0.00	-4.09	-4.09	296.42
2002 12 09 12	32486.40	0.32	292.13	0.00	-8.59	-8.59	172.71
2002 12 10 12	32486.40	0.00	287.76	0.00	-8.84	-8.84	180.40
2002 12 11 12	32486.40	10.57	223.46	0.00	-4.28	-4.28	281.68
2002 12 12 12	32408.27	2.83	218.98	0.00	-2.91	-2.91	354.72
2002 12 13 12	32339.58	15.21	129.52	0.00	-0.66	-0.66	475.56
2002 12 14 12	32268.34	8.38	119.17	0.00	-0.19	-0.19	517.53
2002 12 15 12	32142.72	5.78	88.87	0.00	0.21	0.21	532.35
2002 12 16 12	32142.72	1.48	183.51	0.00	-1.79	-1.79	402.16
2002 12 17 12	32140.80	0.07	259.80	0.00	-7.18	-7.18	243.80
2002 12 18 12	32140.80	0.00	275.35	0.00	-5.96	-5.96	270.96
2002 12 19 12	32140.80	10.83	188.89	0.00	-1.03	-1.03	440.23
2002 12 20 12	32140.80	4.13	207.75	0.00	4.46	4.46	607.05
2002 12 21 12	32140.80	1.56	173.65	0.00	1.22	1.22	494.90
2002 12 22 12	32140.80	1.58	161.73	0.00	-1.05	-1.05	443.41
2002 12 23 12	32140.80	0.55	171.10	0.00	-0.96	-0.96	446.13
2002 12 24 12	32140.80	5.94	119.87	0.00	-2.41	-2.41	414.59
2002 12 25 12	32140.80	6.78	106.51	0.00	-3.18	-3.18	402.95
2002 12 26 12	32142.72	1.38	134.68	0.00	-3.41	-3.41	387.27
2002 12 27 12	32199.15	0.00	203.69	0.00	-4.83	-4.83	322.93
2002 12 28 12	32268.34	0.75	185.80	0.00	-6.29	-6.29	280.49
2002 12 29 12	32339.58	0.20	248.91	0.00	-4.64	-4.64	310.97
2002 12 30 12	32469.84	3.52	210.00	0.00	-3.01	-3.01	350.34
2002 12 31 12	32486.40	7.92	213.40	0.00	-0.06	-0.06	435.16
