  37.24
 226.00
 427165365
Year Mnth Day Hr	Dayl(s)	PRCP(mm/day)	SRAD(W/m2)	SWE(mm)	Tmax(C)	Tmin(C)	Vp(Pa)
2000 01 01 12	34214.40	0.00	240.48	0.00	8.01	8.01	710.71
2000 01 02 12	34214.40	0.00	293.75	0.00	11.42	11.42	1091.99
2000 01 03 12	34214.40	0.00	266.71	0.00	14.24	14.24	1345.98
2000 01 04 12	34214.40	16.28	85.76	0.00	15.38	15.38	1588.41
2000 01 05 12	34214.40	0.00	301.10	0.00	5.13	5.13	598.44
2000 01 06 12	34276.91	0.00	318.65	0.00	1.31	1.31	415.49
2000 01 07 12	34557.21	0.00	317.27	0.00	3.29	3.29	502.68
2000 01 08 12	34560.00	0.00	300.51	0.00	3.09	3.09	382.75
2000 01 09 12	34560.00	9.06	90.55	0.00	4.42	4.42	679.83
2000 01 10 12	34560.00	21.71	134.67	0.00	8.30	8.30	1020.67
2000 01 11 12	34560.00	0.00	323.68	0.00	7.96	7.96	624.14
2000 01 12 12	34709.52	0.00	324.31	0.00	4.70	4.70	411.07
2000 01 13 12	34905.60	0.21	297.67	0.00	6.53	6.53	622.12
2000 01 14 12	34905.60	0.00	340.86	0.00	-0.52	-0.52	275.03
2000 01 15 12	34905.60	0.00	321.72	0.00	-1.84	-1.84	224.61
2000 01 16 12	34905.60	0.00	206.26	0.00	2.46	2.46	458.94
2000 01 17 12	35168.49	0.00	344.43	0.00	0.54	0.54	356.28
2000 01 18 12	35251.20	1.68	106.28	0.00	-4.20	-4.20	283.58
2000 01 19 12	35251.20	0.30	275.26	0.00	-1.25	-1.25	431.29
2000 01 20 12	35251.20	8.09	262.38	0.00	-0.66	-0.66	481.94
2000 01 21 12	35400.72	0.00	303.00	0.00	-5.69	-5.69	258.96
2000 01 22 12	35596.80	0.00	270.87	0.00	-6.08	-6.08	173.41
2000 01 23 12	35596.80	1.18	135.63	0.00	-1.87	-1.87	403.18
2000 01 24 12	35596.80	0.00	274.36	0.00	-0.58	-0.58	481.52
2000 01 25 12	35939.61	14.86	264.08	0.00	-1.08	-1.08	466.48
2000 01 26 12	35942.40	0.00	203.74	0.00	-4.79	-4.79	301.98
2000 01 27 12	35942.40	0.00	373.49	0.00	-5.17	-5.17	273.18
2000 01 28 12	36091.92	0.00	371.97	0.00	-5.37	-5.37	220.23
2000 01 29 12	36288.00	0.00	322.06	0.00	-3.53	-3.53	242.85
2000 01 30 12	36288.00	20.43	112.65	0.00	-2.16	-2.16	454.79
2000 01 31 12	36292.47	2.32	325.56	0.00	-2.79	-2.79	432.91
2000 02 01 12	36633.60	0.00	285.00	0.00	-3.33	-3.33	394.81
2000 02 02 12	36633.60	0.00	374.63	0.00	-2.28	-2.28	378.35
2000 02 03 12	36633.60	0.00	257.66	0.00	-0.63	-0.63	422.90
2000 02 04 12	36979.20	0.00	213.79	0.00	2.05	2.05	513.37
2000 02 05 12	36979.20	0.00	359.37	0.00	0.75	0.75	426.91
2000 02 06 12	36979.20	0.00	362.45	0.00	-0.19	-0.19	353.49
2000 02 07 12	37324.80	0.00	377.65	0.00	2.77	2.77	451.51
2000 02 08 12	37324.80	0.00	346.27	0.00	3.55	3.55	506.45
2000 02 09 12	37329.27	0.00	387.01	0.00	3.20	3.20	535.67
2000 02 10 12	37670.40	0.00	369.43	0.00	6.99	6.99	590.80
2000 02 11 12	37670.40	0.53	255.13	0.00	9.58	9.58	805.16
2000 02 12 12	37933.29	2.47	106.32	0.00	4.18	4.18	646.34
2000 02 13 12	38016.00	0.00	215.55	0.00	1.43	1.43	585.87
2000 02 14 12	38016.00	7.21	321.11	0.00	10.09	10.09	997.51
2000 02 15 12	38361.60	0.00	401.58	0.00	6.59	6.59	577.29
2000 02 16 12	38361.60	0.00	360.11	0.00	6.96	6.96	697.59
2000 02 17 12	38361.60	0.00	375.72	0.00	5.37	5.37	539.64
2000 02 18 12	38707.20	26.12	157.44	0.00	1.30	1.30	548.63
2000 02 19 12	38707.20	2.92	277.36	0.00	7.17	7.17	773.42
2000 02 20 12	39050.01	0.00	385.21	0.00	4.18	4.18	543.94
2000 02 21 12	39052.80	0.00	411.38	0.00	3.36	3.36	446.85
2000 02 22 12	39052.80	0.00	372.08	0.00	4.00	4.00	502.97
2000 02 23 12	39398.40	0.00	208.12	0.00	7.03	7.03	683.45
2000 02 24 12	39398.40	0.00	401.71	0.00	11.22	11.22	885.93
2000 02 25 12	39741.21	0.00	409.46	0.00	15.35	15.35	1195.63
2000 02 26 12	39744.00	0.00	416.61	0.00	15.55	15.55	1160.58
2000 02 27 12	39744.00	1.04	284.29	0.00	14.31	14.31	1284.79
2000 02 28 12	40089.60	3.49	443.01	0.00	11.37	11.37	906.05
2000 02 29 12	40089.60	1.78	389.38	0.00	10.66	10.66	799.61
2000 03 01 12	40435.20	0.07	332.87	0.00	9.94	9.94	693.09
2000 03 02 12	40435.20	0.00	451.73	0.00	11.12	11.12	772.99
2000 03 03 12	40435.20	0.00	476.84	0.00	5.70	5.70	467.00
2000 03 04 12	40780.80	0.00	390.16	0.00	8.31	8.31	520.42
2000 03 05 12	40780.80	0.00	475.54	0.00	9.22	9.22	560.53
2000 03 06 12	41126.40	0.00	471.15	0.00	11.64	11.64	656.65
2000 03 07 12	41126.40	0.00	474.30	0.00	12.60	12.60	797.97
2000 03 08 12	41188.91	0.00	471.93	0.00	17.05	17.05	987.20
2000 03 09 12	41472.00	0.00	454.55	0.00	18.55	18.55	1151.16
2000 03 10 12	41472.00	0.00	481.31	0.00	17.36	17.36	1088.80
2000 03 11 12	41817.60	2.57	276.80	0.00	15.65	15.65	1192.24
2000 03 12 12	41817.60	4.96	343.52	0.00	12.03	12.03	1040.11
2000 03 13 12	42163.20	0.00	428.91	0.00	3.14	3.14	415.74
2000 03 14 12	42163.20	0.00	505.13	0.00	6.57	6.57	519.49
2000 03 15 12	42163.20	0.00	373.00	0.00	9.79	9.79	662.83
2000 03 16 12	42508.80	8.79	189.58	0.00	11.79	11.79	961.51
2000 03 17 12	42508.80	11.16	376.15	0.00	14.22	14.22	1300.03
2000 03 18 12	42854.40	0.00	514.58	0.00	2.08	2.08	399.81
2000 03 19 12	42854.40	0.00	200.56	0.00	3.93	3.93	628.58
2000 03 20 12	43200.00	9.82	130.39	0.00	7.44	7.44	924.22
2000 03 21 12	43200.00	11.56	136.57	0.00	6.87	6.87	901.35
2000 03 22 12	43200.00	0.50	260.19	0.00	7.24	7.24	860.47
2000 03 23 12	43545.60	0.00	442.85	0.00	10.73	10.73	988.03
2000 03 24 12	43545.60	0.00	431.59	0.00	13.11	13.11	1014.29
2000 03 25 12	43891.20	0.00	429.19	0.00	15.02	15.02	1180.40
2000 03 26 12	43891.20	1.94	537.29	0.00	15.51	15.51	990.90
2000 03 27 12	44236.80	3.91	386.41	0.00	12.82	12.82	859.40
2000 03 28 12	44236.80	0.17	440.81	0.00	12.34	12.34	938.58
2000 03 29 12	44236.80	0.00	544.40	0.00	7.88	7.88	578.95
2000 03 30 12	44582.40	0.79	388.56	0.00	10.06	10.06	782.31
2000 03 31 12	44582.40	0.00	548.49	0.00	10.68	10.68	740.63
2000 04 01 12	44928.00	0.00	509.88	0.00	12.23	12.23	748.81
2000 04 02 12	44928.00	1.84	167.63	0.00	12.13	12.13	1117.10
2000 04 03 12	45211.09	3.92	260.58	0.00	17.16	17.16	1707.98
2000 04 04 12	45273.60	5.83	228.05	0.00	16.51	16.51	1572.29
2000 04 05 12	45273.60	0.00	510.61	0.00	6.81	6.81	499.53
2000 04 06 12	45619.20	0.00	510.74	0.00	11.85	11.85	786.24
2000 04 07 12	45619.20	0.00	502.36	0.00	18.00	18.00	1173.16
2000 04 08 12	45964.80	16.88	335.35	0.00	15.18	15.18	1292.54
2000 04 09 12	45964.80	0.00	537.16	0.00	6.49	6.49	574.54
2000 04 10 12	45964.80	0.00	520.54	0.00	9.78	9.78	628.69
2000 04 11 12	46310.40	0.00	342.18	0.00	13.92	13.92	966.57
2000 04 12 12	46310.40	0.00	362.90	0.00	15.31	15.31	1169.12
2000 04 13 12	46656.00	0.99	300.15	0.00	7.65	7.65	724.77
2000 04 14 12	46656.00	0.44	169.46	0.00	8.19	8.19	888.14
2000 04 15 12	46658.79	3.18	134.04	0.00	12.27	12.27	1322.72
2000 04 16 12	47001.60	0.00	357.39	0.00	17.40	17.40	1638.28
2000 04 17 12	47001.60	13.18	272.72	0.00	18.77	18.77	1698.66
2000 04 18 12	47347.20	33.87	145.21	0.00	12.41	12.41	1345.03
2000 04 19 12	47347.20	3.00	481.54	0.00	11.65	11.65	1106.47
2000 04 20 12	47349.99	0.00	346.33	0.00	14.32	14.32	1287.53
2000 04 21 12	47692.80	0.89	405.91	0.00	17.46	17.46	1522.39
2000 04 22 12	47692.80	0.00	265.88	0.00	11.90	11.90	966.28
2000 04 23 12	48038.40	0.00	452.27	0.00	12.39	12.39	975.06
2000 04 24 12	48038.40	0.00	193.32	0.00	11.05	11.05	968.10
2000 04 25 12	48038.40	22.00	126.97	0.00	8.53	8.53	1052.09
2000 04 26 12	48384.00	1.91	398.63	0.00	10.45	10.45	1036.67
2000 04 27 12	48384.00	0.33	531.50	0.00	11.70	11.70	1025.54
2000 04 28 12	48466.71	0.01	329.98	0.00	13.01	13.01	1159.42
2000 04 29 12	48729.60	4.75	454.80	0.00	13.67	13.67	1130.05
2000 04 30 12	48729.60	0.00	544.56	0.00	15.12	15.12	922.93
2000 05 01 12	49070.73	0.00	559.05	0.00	16.38	16.38	1011.74
2000 05 02 12	49075.20	0.00	394.38	0.00	18.15	18.15	1387.83
2000 05 03 12	49075.20	0.00	557.77	0.00	16.07	16.07	1254.03
2000 05 04 12	49420.80	0.00	549.68	0.00	17.25	17.25	1429.69
2000 05 05 12	49420.80	0.00	542.53	0.00	20.55	20.55	1676.09
2000 05 06 12	49420.80	0.15	537.94	0.00	22.48	22.48	1736.64
2000 05 07 12	49766.40	0.00	549.48	0.00	23.73	23.73	1883.17
2000 05 08 12	49766.40	0.00	548.73	0.00	22.83	22.83	1840.78
2000 05 09 12	49766.40	0.00	548.51	0.00	23.17	23.17	2003.54
2000 05 10 12	50107.53	0.00	527.26	0.00	22.61	22.61	1843.43
2000 05 11 12	50112.00	0.00	566.11	0.00	17.34	17.34	1074.99
2000 05 12 12	50112.00	0.00	549.59	0.00	21.13	21.13	1715.69
2000 05 13 12	50308.08	0.00	479.57	0.00	24.98	24.98	2196.18
2000 05 14 12	50457.60	1.57	572.52	0.00	19.82	19.82	1434.99
2000 05 15 12	50457.60	0.00	576.98	0.00	13.97	13.97	847.17
2000 05 16 12	50460.39	0.00	571.49	0.00	15.65	15.65	926.45
2000 05 17 12	50803.20	0.13	535.32	0.00	18.47	18.47	1409.39
2000 05 18 12	50803.20	0.00	529.61	0.00	22.09	22.09	1959.36
2000 05 19 12	50803.20	0.24	427.20	0.00	23.15	23.15	2079.07
2000 05 20 12	50999.28	3.53	410.40	0.00	23.48	23.48	2216.32
2000 05 21 12	51148.80	10.48	419.82	0.00	20.12	20.12	1942.94
2000 05 22 12	51148.80	27.71	376.66	0.00	20.46	20.46	1915.51
2000 05 23 12	51148.80	0.20	445.99	0.00	19.68	19.68	1582.97
2000 05 24 12	51231.51	0.00	537.03	0.00	21.96	21.96	1911.62
2000 05 25 12	51494.40	1.34	371.49	0.00	22.79	22.79	1981.85
2000 05 26 12	51494.40	0.20	570.28	0.00	19.20	19.20	1299.05
2000 05 27 12	51494.40	3.82	298.98	0.00	19.77	19.77	1751.22
2000 05 28 12	51494.40	13.77	344.08	0.00	20.78	20.78	2153.76
2000 05 29 12	51690.48	10.71	162.18	0.00	15.12	15.12	1583.32
2000 05 30 12	51840.00	0.70	485.87	0.00	13.56	13.56	1248.62
2000 05 31 12	51840.00	0.00	558.88	0.00	16.16	16.16	1357.64
2000 06 01 12	51840.00	0.00	528.92	0.00	22.40	22.40	1929.27
2000 06 02 12	51840.00	0.03	548.06	0.00	27.17	27.17	2323.40
2000 06 03 12	51842.79	2.72	457.73	0.00	25.45	25.45	2224.36
2000 06 04 12	52123.09	0.00	331.71	0.00	20.37	20.37	1942.19
2000 06 05 12	52185.60	1.50	321.07	0.00	20.30	20.30	2013.86
2000 06 06 12	52185.60	17.83	497.52	0.00	19.20	19.20	1648.24
2000 06 07 12	52185.60	0.45	573.22	0.00	15.98	15.98	1148.14
2000 06 08 12	52185.60	0.00	558.36	0.00	18.45	18.45	1360.25
2000 06 09 12	52185.60	0.00	561.52	0.00	21.45	21.45	1701.46
2000 06 10 12	52185.60	0.00	557.78	0.00	23.80	23.80	2051.81
2000 06 11 12	52185.60	0.00	556.54	0.00	24.87	24.87	2225.04
2000 06 12 12	52268.31	0.01	519.50	0.00	26.68	26.68	2258.68
2000 06 13 12	52381.68	0.00	473.82	0.00	28.28	28.28	2393.99
2000 06 14 12	52468.69	14.58	316.41	0.00	26.08	26.08	2651.93
2000 06 15 12	52526.73	1.92	440.48	0.00	26.22	26.22	2652.43
2000 06 16 12	52531.20	18.39	429.60	0.00	26.60	26.60	2696.15
2000 06 17 12	52531.20	0.56	347.49	0.00	26.21	26.21	2560.64
2000 06 18 12	52531.20	8.44	339.31	0.00	26.25	26.25	2597.07
2000 06 19 12	52531.20	3.07	298.67	0.00	25.20	25.20	2440.44
2000 06 20 12	52531.20	6.97	517.75	0.00	23.55	23.55	2281.83
2000 06 21 12	52531.20	0.01	411.55	0.00	25.01	25.01	2472.44
2000 06 22 12	52531.20	0.18	340.98	0.00	25.68	25.68	2499.20
2000 06 23 12	52531.20	0.00	529.21	0.00	24.58	24.58	1954.48
2000 06 24 12	52531.20	0.00	529.41	0.00	26.49	26.49	2092.50
2000 06 25 12	52526.73	0.00	474.59	0.00	26.15	26.15	2446.13
2000 06 26 12	52468.69	4.70	435.62	0.00	26.87	26.87	2599.00
2000 06 27 12	52381.68	13.59	321.84	0.00	25.81	25.81	2506.01
2000 06 28 12	52268.31	6.91	318.82	0.00	24.58	24.58	2465.56
2000 06 29 12	52188.39	14.63	377.93	0.00	23.55	23.55	2257.52
2000 06 30 12	52185.60	0.00	561.15	0.00	22.36	22.36	1740.57
2000 07 01 12	52185.60	0.00	447.43	0.00	22.50	22.50	1722.44
2000 07 02 12	52185.60	0.16	584.36	0.00	23.10	23.10	1740.03
2000 07 03 12	52185.60	0.00	492.28	0.00	24.98	24.98	2125.85
2000 07 04 12	52185.60	0.54	394.24	0.00	25.75	25.75	2358.19
2000 07 05 12	52185.60	5.51	348.92	0.00	25.71	25.71	2405.51
2000 07 06 12	52181.13	0.11	468.66	0.00	25.75	25.75	2465.22
2000 07 07 12	51922.71	0.26	511.49	0.00	25.00	25.00	2248.87
2000 07 08 12	51840.00	0.07	329.76	0.00	21.19	21.19	1694.17
2000 07 09 12	51840.00	0.00	568.80	0.00	24.92	24.92	2092.40
2000 07 10 12	51840.00	0.00	552.66	0.00	27.96	27.96	2460.34
2000 07 11 12	51840.00	10.96	311.42	0.00	25.52	25.52	2358.82
2000 07 12 12	51835.53	12.34	210.82	0.00	22.31	22.31	2254.68
2000 07 13 12	51497.19	0.27	353.54	0.00	22.34	22.34	2100.87
2000 07 14 12	51494.40	0.89	482.31	0.00	24.19	24.19	2292.73
2000 07 15 12	51494.40	2.52	421.12	0.00	24.19	24.19	2237.04
2000 07 16 12	51494.40	0.02	420.26	0.00	23.83	23.83	1894.18
2000 07 17 12	51431.89	0.04	545.59	0.00	24.12	24.12	1812.95
2000 07 18 12	51148.80	0.00	561.77	0.00	25.75	25.75	1975.69
2000 07 19 12	51148.80	4.96	384.60	0.00	26.99	26.99	2340.35
2000 07 20 12	51148.80	25.12	415.71	0.00	22.30	22.30	2152.88
2000 07 21 12	51144.33	0.10	556.08	0.00	22.55	22.55	1926.28
2000 07 22 12	50803.20	0.65	398.45	0.00	23.96	23.96	2002.09
2000 07 23 12	50803.20	3.74	332.26	0.00	23.84	23.84	2141.54
2000 07 24 12	50803.20	12.93	210.20	0.00	20.25	20.25	2133.30
2000 07 25 12	50740.69	0.42	146.53	0.00	18.35	18.35	1919.92
2000 07 26 12	50457.60	2.08	243.95	0.00	20.21	20.21	2085.11
2000 07 27 12	50457.60	0.45	453.52	0.00	23.80	23.80	2254.50
2000 07 28 12	50457.60	8.46	380.61	0.00	25.87	25.87	2469.55
2000 07 29 12	50112.00	20.16	364.25	0.00	25.03	25.03	2499.42
2000 07 30 12	50112.00	3.27	298.21	0.00	24.97	24.97	2509.70
2000 07 31 12	50112.00	13.16	327.46	0.00	24.95	24.95	2530.71
2000 08 01 12	49849.11	0.52	368.20	0.00	25.70	25.70	2600.42
2000 08 02 12	49766.40	16.88	360.89	0.00	25.94	25.94	2647.15
2000 08 03 12	49766.40	1.91	383.63	0.00	25.82	25.82	2549.85
2000 08 04 12	49503.51	1.49	406.04	0.00	25.64	25.64	2425.52
2000 08 05 12	49420.80	0.68	508.72	0.00	24.13	24.13	2083.10
2000 08 06 12	49420.80	0.01	465.62	0.00	25.39	25.39	2348.08
2000 08 07 12	49077.99	1.06	479.10	0.00	28.10	28.10	2733.01
2000 08 08 12	49075.20	0.00	507.90	0.00	28.58	28.58	2593.68
2000 08 09 12	49075.20	3.38	532.60	0.00	28.92	28.92	2569.65
2000 08 10 12	48729.60	10.69	545.02	0.00	28.52	28.52	2584.89
2000 08 11 12	48729.60	0.04	452.61	0.00	27.10	27.10	2299.59
2000 08 12 12	48729.60	1.47	486.26	0.00	23.67	23.67	1904.60
2000 08 13 12	48384.00	1.46	413.65	0.00	19.99	19.99	1549.79
2000 08 14 12	48384.00	0.00	526.48	0.00	22.45	22.45	1771.07
2000 08 15 12	48379.53	0.03	563.13	0.00	24.53	24.53	1782.00
2000 08 16 12	48038.40	0.00	527.24	0.00	26.11	26.11	2098.78
2000 08 17 12	48038.40	0.00	536.57	0.00	23.23	23.23	1630.20
2000 08 18 12	47692.80	4.07	444.84	0.00	24.17	24.17	2198.62
2000 08 19 12	47692.80	0.00	458.14	0.00	22.80	22.80	1906.80
2000 08 20 12	47692.80	0.00	335.89	0.00	20.92	20.92	1583.30
2000 08 21 12	47347.20	0.11	535.50	0.00	19.82	19.82	1481.53
2000 08 22 12	47347.20	0.00	559.55	0.00	21.50	21.50	1621.88
2000 08 23 12	47004.39	0.33	433.22	0.00	22.57	22.57	1855.49
2000 08 24 12	47001.60	0.38	428.64	0.00	24.84	24.84	2128.59
2000 08 25 12	47001.60	0.00	402.92	0.00	24.68	24.68	2109.44
2000 08 26 12	46656.00	0.36	443.28	0.00	24.56	24.56	2165.24
2000 08 27 12	46656.00	15.11	322.36	0.00	23.89	23.89	2290.44
2000 08 28 12	46310.40	21.48	328.15	0.00	21.78	21.78	2086.01
2000 08 29 12	46310.40	1.31	281.34	0.00	21.47	21.47	2161.91
2000 08 30 12	46310.40	1.32	186.68	0.00	19.34	19.34	2088.37
2000 08 31 12	45964.80	11.33	288.61	0.00	22.48	22.48	2414.30
2000 09 01 12	45964.80	1.97	313.17	0.00	22.90	22.90	2380.07
2000 09 02 12	45619.20	29.59	308.39	0.00	24.71	24.71	2532.13
2000 09 03 12	45619.20	7.90	239.96	0.00	24.70	24.70	2589.80
2000 09 04 12	45619.20	7.46	330.39	0.00	24.55	24.55	2472.71
2000 09 05 12	45273.60	5.32	155.11	0.00	19.79	19.79	2004.37
2000 09 06 12	45273.60	0.00	469.15	0.00	16.95	16.95	1431.40
2000 09 07 12	44928.00	0.04	499.94	0.00	17.75	17.75	1540.07
2000 09 08 12	44928.00	0.00	450.41	0.00	21.02	21.02	1764.97
2000 09 09 12	44582.40	0.04	407.49	0.00	23.34	23.34	2052.50
2000 09 10 12	44582.40	0.00	309.12	0.00	23.81	23.81	2144.74
2000 09 11 12	44582.40	0.00	321.51	0.00	23.26	23.26	2159.58
2000 09 12 12	44236.80	0.00	448.43	0.00	24.87	24.87	2296.39
2000 09 13 12	44236.80	0.06	409.93	0.00	24.27	24.27	2182.09
2000 09 14 12	43891.20	3.06	274.62	0.00	24.10	24.10	2394.02
2000 09 15 12	43891.20	1.88	496.22	0.00	22.67	22.67	1918.14
2000 09 16 12	43548.39	0.00	457.08	0.00	13.90	13.90	948.53
2000 09 17 12	43545.60	0.00	505.00	0.00	14.65	14.65	956.75
2000 09 18 12	43545.60	0.53	152.46	0.00	12.86	12.86	1253.93
2000 09 19 12	43200.00	28.55	215.02	0.00	16.84	16.84	1742.69
2000 09 20 12	43200.00	0.26	480.73	0.00	21.66	21.66	1903.59
2000 09 21 12	42854.40	0.00	462.71	0.00	22.95	22.95	2031.33
2000 09 22 12	42854.40	0.00	171.90	0.00	17.12	17.12	1410.66
2000 09 23 12	42854.40	11.21	179.11	0.00	17.90	17.90	1898.41
2000 09 24 12	42508.80	0.83	312.07	0.00	21.74	21.74	2181.65
2000 09 25 12	42508.80	21.56	125.04	0.00	19.57	19.57	2025.88
2000 09 26 12	42163.20	16.43	281.45	0.00	13.81	13.81	1346.48
2000 09 27 12	42163.20	0.00	466.95	0.00	14.43	14.43	1174.97
2000 09 28 12	41817.60	0.00	459.28	0.00	15.18	15.18	1143.99
2000 09 29 12	41817.60	0.00	460.70	0.00	14.66	14.66	1238.08
2000 09 30 12	41817.60	0.00	464.52	0.00	13.82	13.82	1183.15
2000 10 01 12	41472.00	0.05	464.97	0.00	16.59	16.59	1399.73
2000 10 02 12	41472.00	0.04	459.20	0.00	16.97	16.97	1421.87
2000 10 03 12	41126.40	0.04	451.24	0.00	20.33	20.33	1710.58
2000 10 04 12	41126.40	0.00	448.94	0.00	22.14	22.14	1936.24
2000 10 05 12	40780.80	0.04	451.02	0.00	21.53	21.53	1874.47
2000 10 06 12	40780.80	0.03	416.42	0.00	21.51	21.51	1803.30
2000 10 07 12	40780.80	0.00	394.71	0.00	14.54	14.54	1043.53
2000 10 08 12	40435.20	0.00	422.57	0.00	8.90	8.90	594.49
2000 10 09 12	40435.20	0.00	413.81	0.00	5.14	5.14	505.52
2000 10 10 12	40089.60	0.00	457.31	0.00	7.33	7.33	588.14
2000 10 11 12	40089.60	0.00	461.31	0.00	9.96	9.96	598.52
2000 10 12 12	40089.60	0.00	453.15	0.00	13.00	13.00	702.57
2000 10 13 12	39744.00	0.00	453.88	0.00	14.90	14.90	804.26
2000 10 14 12	39744.00	0.00	446.20	0.00	15.39	15.39	870.76
2000 10 15 12	39398.40	0.00	422.63	0.00	17.25	17.25	958.31
2000 10 16 12	39398.40	0.00	411.17	0.00	19.25	19.25	1150.33
2000 10 17 12	39395.61	0.00	343.74	0.00	17.40	17.40	1477.77
2000 10 18 12	39052.80	0.00	392.54	0.00	19.14	19.14	1686.53
2000 10 19 12	39052.80	0.00	425.70	0.00	15.52	15.52	1034.91
2000 10 20 12	38707.20	0.00	422.36	0.00	14.56	14.56	906.59
2000 10 21 12	38707.20	0.00	367.07	0.00	16.75	16.75	1237.23
2000 10 22 12	38707.20	0.00	399.01	0.00	18.45	18.45	1370.99
2000 10 23 12	38361.60	0.00	407.01	0.00	13.73	13.73	1082.98
2000 10 24 12	38361.60	0.43	191.67	0.00	12.32	12.32	1027.75
2000 10 25 12	38020.47	0.25	115.55	0.00	15.06	15.06	1451.37
2000 10 26 12	38016.00	0.00	395.01	0.00	15.92	15.92	1322.94
2000 10 27 12	38016.00	0.00	392.19	0.00	15.90	15.90	1260.59
2000 10 28 12	37670.40	0.00	355.53	0.00	18.58	18.58	1274.03
2000 10 29 12	37670.40	0.00	410.73	0.00	9.57	9.57	638.61
2000 10 30 12	37670.40	0.00	404.23	0.00	8.81	8.81	435.10
2000 10 31 12	37324.80	0.00	395.30	0.00	9.41	9.41	516.09
2000 11 01 12	37324.80	0.00	390.11	0.00	10.79	10.79	551.11
2000 11 02 12	37322.01	0.00	384.48	0.00	12.13	12.13	593.25
2000 11 03 12	36979.20	0.00	366.11	0.00	15.05	15.05	753.95
2000 11 04 12	36979.20	0.00	243.03	0.00	16.71	16.71	1121.77
2000 11 05 12	36896.49	0.00	376.29	0.00	12.89	12.89	773.70
2000 11 06 12	36633.60	0.00	375.32	0.00	8.54	8.54	561.61
2000 11 07 12	36633.60	0.17	121.60	0.00	11.03	11.03	972.69
2000 11 08 12	36630.81	0.95	168.59	0.00	13.96	13.96	1379.56
2000 11 09 12	36288.00	7.91	95.40	0.00	16.03	16.03	1727.40
2000 11 10 12	36288.00	5.54	329.84	0.00	15.35	15.35	1369.16
2000 11 11 12	36288.00	0.00	357.93	0.00	7.99	7.99	701.94
2000 11 12 12	35942.40	0.00	330.07	0.00	8.79	8.79	755.63
2000 11 13 12	35942.40	0.00	305.21	0.00	9.02	9.02	808.90
2000 11 14 12	35942.40	3.13	221.43	0.00	10.07	10.07	944.53
2000 11 15 12	35659.31	0.00	339.73	0.00	3.76	3.76	462.63
2000 11 16 12	35596.80	0.00	220.03	0.00	3.74	3.74	523.05
2000 11 17 12	35596.80	0.61	341.45	0.00	8.05	8.05	693.91
2000 11 18 12	35596.80	0.00	340.93	0.00	1.49	1.49	380.16
2000 11 19 12	35255.67	0.57	219.42	0.00	3.16	3.16	439.08
2000 11 20 12	35251.20	0.00	308.23	0.00	1.03	1.03	496.37
2000 11 21 12	35251.20	0.00	278.29	0.00	-0.70	-0.70	308.42
2000 11 22 12	35251.20	0.00	343.89	0.00	-3.38	-3.38	230.75
2000 11 23 12	34968.11	0.00	335.33	0.00	-0.98	-0.98	308.55
2000 11 24 12	34905.60	0.00	191.39	0.00	0.91	0.91	373.72
2000 11 25 12	34905.60	14.19	68.27	0.00	1.54	1.54	564.32
2000 11 26 12	34905.60	5.50	298.74	0.00	9.09	9.09	979.71
2000 11 27 12	34902.81	0.00	321.03	0.00	9.72	9.72	772.70
2000 11 28 12	34564.47	0.00	323.07	0.00	6.69	6.69	585.14
2000 11 29 12	34560.00	0.00	183.16	0.00	6.20	6.20	530.78
2000 11 30 12	34560.00	0.18	322.24	0.00	5.55	5.55	553.87
2000 12 01 12	34560.00	0.00	274.72	0.00	3.00	3.00	446.14
2000 12 02 12	34560.00	0.00	90.25	0.00	3.37	3.37	518.63
2000 12 03 12	34477.29	0.00	91.07	0.00	-1.42	-1.42	353.31
2000 12 04 12	34218.87	0.00	332.91	0.00	-5.96	-5.96	271.58
2000 12 05 12	34214.40	0.00	310.96	0.00	-1.35	-1.35	341.83
2000 12 06 12	34214.40	0.00	286.10	0.00	-1.27	-1.27	307.48
2000 12 07 12	34214.40	0.00	221.51	0.00	1.17	1.17	389.17
2000 12 08 12	34214.40	0.00	299.25	0.00	4.37	4.37	513.49
2000 12 09 12	34214.40	0.00	301.53	0.00	2.35	2.35	450.16
2000 12 10 12	34214.40	2.18	67.09	0.00	-0.92	-0.92	484.94
2000 12 11 12	34211.61	0.00	186.76	0.00	3.47	3.47	676.05
2000 12 12 12	34131.69	0.12	306.17	0.00	6.32	6.32	723.02
2000 12 13 12	34018.32	0.00	283.44	0.00	-1.57	-1.57	273.96
2000 12 14 12	33931.31	6.69	142.75	0.00	0.68	0.68	552.99
2000 12 15 12	33873.27	0.00	293.81	0.00	1.74	1.74	546.09
2000 12 16 12	33868.80	9.67	103.98	0.00	2.75	2.75	683.53
2000 12 17 12	33868.80	22.09	161.40	0.00	8.37	8.37	981.71
2000 12 18 12	33868.80	0.00	307.10	0.00	-1.42	-1.42	310.50
2000 12 19 12	33868.80	4.39	124.26	0.00	0.20	0.20	480.76
2000 12 20 12	33868.80	0.00	310.80	0.00	-4.08	-4.08	338.49
2000 12 21 12	33868.80	0.00	279.15	0.00	-4.38	-4.38	339.18
2000 12 22 12	33868.80	0.00	249.17	0.00	-1.78	-1.78	408.64
2000 12 23 12	33868.80	0.00	308.17	0.00	-7.55	-7.55	230.34
2000 12 24 12	33868.80	0.00	218.81	0.00	-5.52	-5.52	306.58
2000 12 25 12	33873.27	0.00	319.41	0.00	-5.62	-5.62	273.94
2000 12 26 12	33931.31	0.00	285.85	0.00	-6.71	-6.71	211.79
2000 12 27 12	34018.32	0.00	202.83	0.00	-1.60	-1.60	409.73
2000 12 28 12	34131.69	0.00	315.80	0.00	-1.72	-1.72	398.34
2000 12 29 12	34214.40	0.00	216.47	0.00	-4.21	-4.21	205.85
2000 12 30 12	34214.40	0.00	97.96	0.00	-2.92	-2.92	296.81
2000 12 31 12	34214.40	0.00	311.86	0.00	-4.22	-4.22	248.80
2001 01 01 12	34214.40	0.00	125.32	0.00	-3.90	-3.90	282.16
2001 01 02 12	34214.40	0.00	259.55	0.00	-2.15	-2.15	294.64
2001 01 03 12	34214.40	0.00	323.75	0.00	-4.62	-4.62	243.00
2001 01 04 12	34214.40	0.00	250.61	0.00	-3.52	-3.52	297.69
2001 01 05 12	34214.40	0.00	152.65	0.00	-1.92	-1.92	394.05
2001 01 06 12	34276.91	0.00	290.36	0.00	0.67	0.67	460.26
2001 01 07 12	34557.21	0.00	289.36	0.00	1.79	1.79	425.47
2001 01 08 12	34560.00	7.49	91.70	0.00	2.77	2.77	604.32
2001 01 09 12	34560.00	0.00	277.98	0.00	-0.22	-0.22	450.14
2001 01 10 12	34560.00	0.00	326.92	0.00	-0.96	-0.96	282.55
2001 01 11 12	34560.00	0.00	329.81	0.00	2.72	2.72	370.87
2001 01 12 12	34709.52	0.00	225.09	0.00	3.86	3.86	506.97
2001 01 13 12	34905.60	0.00	325.88	0.00	2.00	2.00	484.33
2001 01 14 12	34905.60	0.04	132.90	0.00	3.78	3.78	559.40
2001 01 15 12	34905.60	0.14	325.39	0.00	6.95	6.95	859.72
2001 01 16 12	34905.60	0.00	316.06	0.00	5.42	5.42	641.91
2001 01 17 12	35168.49	0.41	231.08	0.00	3.42	3.42	480.69
2001 01 18 12	35251.20	5.80	85.39	0.00	3.73	3.73	649.83
2001 01 19 12	35251.20	23.34	73.82	0.00	6.40	6.40	931.28
2001 01 20 12	35251.20	18.92	88.09	0.00	5.74	5.74	889.34
2001 01 21 12	35400.72	0.98	349.17	0.00	0.26	0.26	384.18
2001 01 22 12	35596.80	0.00	245.51	0.00	-0.64	-0.64	270.24
2001 01 23 12	35596.80	0.00	359.65	0.00	-0.43	-0.43	323.02
2001 01 24 12	35596.80	0.00	293.51	0.00	1.95	1.95	401.57
2001 01 25 12	35939.61	0.00	258.37	0.00	0.26	0.26	383.20
2001 01 26 12	35942.40	0.00	349.23	0.00	-2.27	-2.27	286.83
2001 01 27 12	35942.40	0.00	253.60	0.00	2.11	2.11	438.46
2001 01 28 12	36091.92	0.00	365.18	0.00	0.75	0.75	359.78
2001 01 29 12	36288.00	0.00	261.84	0.00	4.94	4.94	471.48
2001 01 30 12	36288.00	5.24	298.79	0.00	8.77	8.77	887.65
2001 01 31 12	36292.47	0.00	280.95	0.00	8.76	8.76	777.14
2001 02 01 12	36633.60	0.00	291.16	0.00	6.89	6.89	585.70
2001 02 02 12	36633.60	0.00	298.68	0.00	5.52	5.52	520.78
2001 02 03 12	36633.60	0.00	375.53	0.00	-0.43	-0.43	278.12
2001 02 04 12	36979.20	0.00	265.83	0.00	-0.43	-0.43	331.99
2001 02 05 12	36979.20	2.06	245.56	0.00	1.92	1.92	566.46
2001 02 06 12	36979.20	0.03	339.59	0.00	3.69	3.69	525.36
2001 02 07 12	37324.80	0.00	376.51	0.00	6.64	6.64	563.26
2001 02 08 12	37324.80	0.00	374.47	0.00	8.89	8.89	712.33
2001 02 09 12	37329.27	0.11	349.19	0.00	11.14	11.14	941.63
2001 02 10 12	37670.40	0.13	385.54	0.00	12.67	12.67	1006.06
2001 02 11 12	37670.40	0.00	397.76	0.00	1.95	1.95	357.08
2001 02 12 12	37933.29	1.60	90.68	0.00	-1.33	-1.33	377.03
2001 02 13 12	38016.00	2.28	342.10	0.00	3.90	3.90	647.88
2001 02 14 12	38016.00	3.53	118.69	0.00	8.19	8.19	998.85
2001 02 15 12	38361.60	1.22	80.24	0.00	13.96	13.96	1497.09
2001 02 16 12	38361.60	4.59	100.37	0.00	10.57	10.57	1216.59
2001 02 17 12	38361.60	17.23	388.30	0.00	7.63	7.63	819.75
2001 02 18 12	38707.20	0.00	422.47	0.00	-0.31	-0.31	285.70
2001 02 19 12	38707.20	0.00	332.90	0.00	0.53	0.53	306.89
2001 02 20 12	39050.01	0.00	370.59	0.00	5.26	5.26	585.18
2001 02 21 12	39052.80	0.00	321.45	0.00	11.36	11.36	851.56
2001 02 22 12	39052.80	5.89	110.69	0.00	-1.63	-1.63	357.52
2001 02 23 12	39398.40	0.00	427.76	0.00	-1.45	-1.45	430.60
2001 02 24 12	39398.40	0.00	319.82	0.00	2.13	2.13	477.04
2001 02 25 12	39741.21	5.26	136.19	0.00	7.24	7.24	949.56
2001 02 26 12	39744.00	0.00	432.98	0.00	11.18	11.18	894.85
2001 02 27 12	39744.00	0.00	417.76	0.00	7.64	7.64	533.54
2001 02 28 12	40089.60	0.24	212.74	0.00	7.54	7.54	659.89
2001 03 01 12	40089.60	0.00	472.12	0.00	4.07	4.07	389.00
2001 03 02 12	40435.20	0.00	264.03	0.00	6.41	6.41	539.28
2001 03 03 12	40435.20	0.00	247.72	0.00	9.53	9.53	786.14
2001 03 04 12	40435.20	5.91	188.32	0.00	8.81	8.81	1036.84
2001 03 05 12	40780.80	1.97	261.85	0.00	6.55	6.55	774.79
2001 03 06 12	40780.80	0.40	231.96	0.00	-0.16	-0.16	267.48
2001 03 07 12	41126.40	0.00	294.94	0.00	1.21	1.21	385.96
2001 03 08 12	41126.40	0.00	489.53	0.00	3.86	3.86	464.24
2001 03 09 12	41188.91	0.00	432.13	0.00	6.25	6.25	525.10
2001 03 10 12	41472.00	0.00	493.83	0.00	2.26	2.26	358.53
2001 03 11 12	41472.00	0.00	389.06	0.00	4.93	4.93	448.02
2001 03 12 12	41817.60	0.00	314.29	0.00	7.44	7.44	643.93
2001 03 13 12	41817.60	10.59	416.15	0.00	13.84	13.84	1206.64
2001 03 14 12	42163.20	0.00	506.54	0.00	11.56	11.56	601.79
2001 03 15 12	42163.20	12.76	109.34	0.00	7.75	7.75	688.16
2001 03 16 12	42163.20	1.00	290.16	0.00	7.91	7.91	934.37
2001 03 17 12	42508.80	0.00	406.68	0.00	10.67	10.67	883.42
2001 03 18 12	42508.80	0.00	523.06	0.00	6.14	6.14	522.89
2001 03 19 12	42854.40	0.00	531.62	0.00	4.61	4.61	381.11
2001 03 20 12	42854.40	1.16	199.40	0.00	3.48	3.48	513.26
2001 03 21 12	43200.00	48.30	154.89	0.00	7.38	7.38	965.39
2001 03 22 12	43200.00	2.23	483.40	0.00	9.28	9.28	882.28
2001 03 23 12	43200.00	0.00	528.15	0.00	7.87	7.87	577.71
2001 03 24 12	43545.60	0.00	413.17	0.00	9.90	9.90	671.82
2001 03 25 12	43545.60	0.00	530.50	0.00	6.05	6.05	518.00
2001 03 26 12	43891.20	0.00	522.26	0.00	2.80	2.80	351.75
2001 03 27 12	43891.20	0.00	409.13	0.00	1.15	1.15	272.79
2001 03 28 12	44236.80	0.00	491.25	0.00	3.66	3.66	381.30
2001 03 29 12	44236.80	22.37	141.24	0.00	4.87	4.87	725.13
2001 03 30 12	44236.80	27.09	451.18	0.00	12.16	12.16	1186.00
2001 03 31 12	44582.40	1.73	156.81	0.00	11.47	11.47	1140.33
2001 04 01 12	44582.40	15.58	247.16	0.00	8.40	8.40	1026.81
2001 04 02 12	44928.00	0.00	513.90	0.00	7.15	7.15	651.01
2001 04 03 12	44928.00	2.45	211.42	0.00	8.34	8.34	821.27
2001 04 04 12	45211.09	0.00	431.61	0.00	10.39	10.39	950.41
2001 04 05 12	45273.60	0.00	406.00	0.00	10.50	10.50	811.68
2001 04 06 12	45273.60	0.33	345.84	0.00	14.81	14.81	1247.74
2001 04 07 12	45619.20	0.01	453.75	0.00	20.52	20.52	1789.49
2001 04 08 12	45619.20	0.00	488.26	0.00	20.12	20.12	1739.55
2001 04 09 12	45964.80	0.00	504.72	0.00	22.42	22.42	1688.15
2001 04 10 12	45964.80	0.00	411.20	0.00	21.72	21.72	1722.16
2001 04 11 12	45964.80	9.51	435.66	0.00	17.87	17.87	1712.61
2001 04 12 12	46310.40	0.05	387.84	0.00	20.68	20.68	1880.28
2001 04 13 12	46310.40	2.88	316.83	0.00	18.15	18.15	1558.80
2001 04 14 12	46656.00	0.02	524.64	0.00	16.82	16.82	992.84
2001 04 15 12	46656.00	0.40	352.23	0.00	16.21	16.21	1110.81
2001 04 16 12	46658.79	0.00	436.51	0.00	13.51	13.51	1041.43
2001 04 17 12	47001.60	0.64	231.59	0.00	8.84	8.84	646.47
2001 04 18 12	47001.60	0.00	467.59	0.00	3.81	3.81	445.07
2001 04 19 12	47347.20	0.00	536.67	0.00	6.94	6.94	496.94
2001 04 20 12	47347.20	0.00	375.20	0.00	10.86	10.86	739.40
2001 04 21 12	47349.99	0.25	335.03	0.00	14.97	14.97	1070.63
2001 04 22 12	47692.80	0.00	486.15	0.00	19.12	19.12	1491.89
2001 04 23 12	47692.80	0.00	520.12	0.00	21.04	21.04	1671.49
2001 04 24 12	48038.40	1.79	419.16	0.00	19.74	19.74	1603.58
2001 04 25 12	48038.40	3.49	420.99	0.00	11.92	11.92	1013.42
2001 04 26 12	48038.40	0.00	555.15	0.00	9.36	9.36	702.73
2001 04 27 12	48384.00	0.00	498.20	0.00	13.13	13.13	746.96
2001 04 28 12	48384.00	0.00	541.16	0.00	16.90	16.90	975.85
2001 04 29 12	48466.71	0.00	551.14	0.00	11.52	11.52	723.48
2001 04 30 12	48729.60	0.00	539.54	0.00	12.96	12.96	896.00
2001 05 01 12	48729.60	0.00	554.12	0.00	17.09	17.09	1322.86
2001 05 02 12	49070.73	0.00	544.17	0.00	20.38	20.38	1570.48
2001 05 03 12	49075.20	0.00	552.46	0.00	21.15	21.15	1621.34
2001 05 04 12	49075.20	0.00	547.61	0.00	20.60	20.60	1559.09
2001 05 05 12	49420.80	2.67	492.14	0.00	21.89	21.89	1619.35
2001 05 06 12	49420.80	4.44	276.58	0.00	17.75	17.75	1571.19
2001 05 07 12	49420.80	0.00	511.65	0.00	13.07	13.07	1070.06
2001 05 08 12	49766.40	0.10	352.66	0.00	14.04	14.04	1165.40
2001 05 09 12	49766.40	0.00	491.32	0.00	18.59	18.59	1539.87
2001 05 10 12	49766.40	0.00	531.69	0.00	19.90	19.90	1442.83
2001 05 11 12	50107.53	0.00	555.96	0.00	21.87	21.87	1633.88
2001 05 12 12	50112.00	0.56	469.75	0.00	22.39	22.39	1694.43
2001 05 13 12	50112.00	0.00	505.01	0.00	15.71	15.71	1123.51
2001 05 14 12	50308.08	0.00	576.46	0.00	14.06	14.06	757.55
2001 05 15 12	50457.60	4.86	154.88	0.00	12.70	12.70	1001.13
2001 05 16 12	50457.60	7.79	148.60	0.00	13.22	13.22	1426.01
2001 05 17 12	50460.39	4.73	329.37	0.00	13.57	13.57	1388.35
2001 05 18 12	50803.20	10.98	373.57	0.00	17.42	17.42	1771.48
2001 05 19 12	50803.20	6.35	370.78	0.00	21.88	21.88	2181.28
2001 05 20 12	50803.20	2.50	355.18	0.00	20.81	20.81	2068.83
2001 05 21 12	50999.28	4.39	272.98	0.00	19.09	19.09	2037.31
2001 05 22 12	51148.80	34.94	346.60	0.00	22.60	22.60	2270.81
2001 05 23 12	51148.80	0.16	574.91	0.00	17.78	17.78	1409.60
2001 05 24 12	51148.80	0.09	440.32	0.00	18.09	18.09	1265.60
2001 05 25 12	51231.51	7.30	311.69	0.00	18.23	18.23	1679.48
2001 05 26 12	51494.40	15.76	385.13	0.00	19.64	19.64	1768.01
2001 05 27 12	51494.40	1.61	478.10	0.00	19.12	19.12	1509.13
2001 05 28 12	51494.40	4.44	337.86	0.00	19.25	19.25	1651.38
2001 05 29 12	51494.40	4.91	455.54	0.00	19.19	19.19	1610.11
2001 05 30 12	51690.48	0.00	560.86	0.00	19.78	19.78	1337.44
2001 05 31 12	51840.00	0.00	503.01	0.00	16.86	16.86	1196.98
2001 06 01 12	51840.00	16.51	328.19	0.00	18.88	18.88	1836.39
2001 06 02 12	51840.00	0.00	412.67	0.00	21.09	21.09	1922.66
2001 06 03 12	51840.00	1.09	450.33	0.00	19.17	19.17	1472.81
2001 06 04 12	51842.79	0.01	302.92	0.00	17.85	17.85	1519.56
2001 06 05 12	52123.09	16.34	451.63	0.00	22.54	22.54	2167.85
2001 06 06 12	52185.60	9.95	401.24	0.00	26.05	26.05	2463.31
2001 06 07 12	52185.60	4.10	376.79	0.00	24.03	24.03	2228.02
2001 06 08 12	52185.60	0.15	369.92	0.00	22.50	22.50	2036.34
2001 06 09 12	52185.60	1.19	470.70	0.00	22.16	22.16	1831.27
2001 06 10 12	52185.60	0.11	564.03	0.00	22.52	22.52	1685.72
2001 06 11 12	52185.60	4.61	433.41	0.00	23.16	23.16	1966.96
2001 06 12 12	52185.60	0.00	551.37	0.00	24.95	24.95	2250.30
2001 06 13 12	52268.31	0.51	431.14	0.00	25.46	25.46	2450.61
2001 06 14 12	52381.68	5.77	392.77	0.00	25.31	25.31	2562.65
2001 06 15 12	52468.69	10.95	297.64	0.00	22.96	22.96	2393.06
2001 06 16 12	52526.73	6.78	337.71	0.00	22.54	22.54	2348.17
2001 06 17 12	52531.20	0.00	560.39	0.00	23.99	23.99	1942.43
2001 06 18 12	52531.20	0.00	565.85	0.00	22.91	22.91	1607.37
2001 06 19 12	52531.20	0.00	554.74	0.00	24.49	24.49	1942.69
2001 06 20 12	52531.20	0.00	542.70	0.00	25.07	25.07	2179.54
2001 06 21 12	52531.20	0.00	441.03	0.00	26.05	26.05	2279.00
2001 06 22 12	52531.20	10.89	324.27	0.00	24.86	24.86	2472.43
2001 06 23 12	52531.20	10.68	379.60	0.00	23.59	23.59	2289.20
2001 06 24 12	52531.20	0.00	411.25	0.00	22.37	22.37	1947.49
2001 06 25 12	52531.20	1.01	425.80	0.00	22.93	22.93	1941.35
2001 06 26 12	52526.73	0.25	270.49	0.00	23.71	23.71	2253.25
2001 06 27 12	52468.69	0.00	383.31	0.00	25.33	25.33	2441.47
2001 06 28 12	52381.68	0.00	445.88	0.00	26.06	26.06	2317.52
2001 06 29 12	52268.31	1.52	428.99	0.00	27.67	27.67	2364.61
2001 06 30 12	52188.39	0.48	438.34	0.00	26.73	26.73	2447.16
2001 07 01 12	52185.60	0.00	449.65	0.00	25.96	25.96	2351.81
2001 07 02 12	52185.60	0.00	410.62	0.00	23.58	23.58	2025.58
2001 07 03 12	52185.60	0.00	421.01	0.00	21.86	21.86	1889.77
2001 07 04 12	52185.60	7.90	381.19	0.00	26.11	26.11	2518.93
2001 07 05 12	52185.60	0.33	522.68	0.00	25.76	25.76	2211.67
2001 07 06 12	52185.60	0.00	565.80	0.00	23.53	23.53	1750.17
2001 07 07 12	52181.13	0.00	507.17	0.00	22.19	22.19	1835.76
2001 07 08 12	51922.71	7.75	353.05	0.00	22.95	22.95	2310.72
2001 07 09 12	51840.00	3.14	499.20	0.00	26.13	26.13	2420.36
2001 07 10 12	51840.00	1.74	470.00	0.00	27.57	27.57	2474.47
2001 07 11 12	51840.00	0.00	510.36	0.00	27.18	27.18	2379.79
2001 07 12 12	51840.00	0.00	539.90	0.00	23.14	23.14	1553.96
2001 07 13 12	51835.53	0.09	512.42	0.00	23.51	23.51	1658.37
2001 07 14 12	51497.19	0.00	539.92	0.00	22.05	22.05	1455.67
2001 07 15 12	51494.40	0.00	578.89	0.00	23.45	23.45	1482.44
2001 07 16 12	51494.40	0.00	556.28	0.00	24.72	24.72	1575.42
2001 07 17 12	51494.40	0.00	430.50	0.00	25.48	25.48	1936.27
2001 07 18 12	51431.89	4.30	274.58	0.00	24.91	24.91	2340.10
2001 07 19 12	51148.80	10.77	314.84	0.00	23.13	23.13	2266.23
2001 07 20 12	51148.80	0.00	380.29	0.00	22.69	22.69	2025.42
2001 07 21 12	51148.80	0.00	566.39	0.00	22.96	22.96	1706.38
2001 07 22 12	51144.33	0.00	575.63	0.00	22.20	22.20	1578.45
2001 07 23 12	50803.20	0.02	533.47	0.00	24.98	24.98	2122.44
2001 07 24 12	50803.20	0.43	369.34	0.00	26.04	26.04	2510.27
2001 07 25 12	50803.20	4.55	370.65	0.00	24.97	24.97	2398.17
2001 07 26 12	50740.69	11.77	295.88	0.00	23.80	23.80	2409.33
2001 07 27 12	50457.60	9.35	286.34	0.00	21.49	21.49	2120.80
2001 07 28 12	50457.60	18.37	149.67	0.00	19.17	19.17	1915.59
2001 07 29 12	50457.60	15.88	272.33	0.00	19.21	19.21	2086.16
2001 07 30 12	50112.00	1.03	297.64	0.00	21.28	21.28	2201.43
2001 07 31 12	50112.00	1.90	486.87	0.00	22.71	22.71	2099.25
2001 08 01 12	50112.00	0.04	509.84	0.00	23.70	23.70	2115.96
2001 08 02 12	49849.11	0.66	558.37	0.00	23.27	23.27	1966.76
2001 08 03 12	49766.40	0.00	510.03	0.00	23.72	23.72	2097.73
2001 08 04 12	49766.40	0.00	354.15	0.00	25.33	25.33	2380.70
2001 08 05 12	49503.51	0.04	301.72	0.00	26.50	26.50	2454.45
2001 08 06 12	49420.80	0.00	496.85	0.00	27.71	27.71	2557.04
2001 08 07 12	49420.80	0.00	535.18	0.00	28.16	28.16	2551.27
2001 08 08 12	49077.99	0.00	562.44	0.00	29.24	29.24	2443.46
2001 08 09 12	49075.20	0.04	557.46	0.00	29.62	29.62	2477.23
2001 08 10 12	49075.20	0.03	420.75	0.00	29.87	29.87	2736.65
2001 08 11 12	48729.60	13.37	346.62	0.00	28.35	28.35	2786.77
2001 08 12 12	48729.60	7.73	404.63	0.00	27.26	27.26	2814.58
2001 08 13 12	48729.60	3.98	357.99	0.00	26.04	26.04	2621.19
2001 08 14 12	48384.00	1.32	444.16	0.00	25.44	25.44	2212.47
2001 08 15 12	48384.00	0.00	522.89	0.00	25.05	25.05	2150.04
2001 08 16 12	48379.53	0.00	388.69	0.00	25.39	25.39	2283.69
2001 08 17 12	48038.40	0.01	391.08	0.00	25.62	25.62	2347.02
2001 08 18 12	48038.40	0.75	380.49	0.00	26.34	26.34	2399.66
2001 08 19 12	47692.80	3.68	319.23	0.00	25.24	25.24	2374.34
2001 08 20 12	47692.80	1.96	486.70	0.00	26.52	26.52	2390.03
2001 08 21 12	47692.80	0.00	565.59	0.00	23.28	23.28	1632.13
2001 08 22 12	47347.20	0.00	563.42	0.00	23.83	23.83	1526.57
2001 08 23 12	47347.20	3.72	395.55	0.00	23.81	23.81	1924.84
2001 08 24 12	47004.39	19.18	423.57	0.00	25.38	25.38	2365.69
2001 08 25 12	47001.60	0.00	514.86	0.00	24.56	24.56	2157.28
2001 08 26 12	47001.60	0.00	490.07	0.00	23.51	23.51	2063.09
2001 08 27 12	46656.00	0.95	428.75	0.00	26.01	26.01	2300.01
2001 08 28 12	46656.00	0.45	510.72	0.00	27.20	27.20	2306.53
2001 08 29 12	46310.40	0.00	479.57	0.00	26.43	26.43	2107.15
2001 08 30 12	46310.40	5.33	351.01	0.00	26.44	26.44	2471.06
2001 08 31 12	46310.40	0.12	393.89	0.00	25.76	25.76	2423.34
2001 09 01 12	45964.80	22.93	229.93	0.00	22.61	22.61	2237.87
2001 09 02 12	45964.80	0.07	350.62	0.00	22.59	22.59	2199.54
2001 09 03 12	45619.20	0.57	416.12	0.00	22.43	22.43	2046.28
2001 09 04 12	45619.20	0.15	331.10	0.00	22.15	22.15	2112.38
2001 09 05 12	45619.20	0.69	484.28	0.00	24.22	24.22	2173.64
2001 09 06 12	45273.60	0.00	313.48	0.00	22.36	22.36	1885.68
2001 09 07 12	45273.60	0.00	321.56	0.00	22.88	22.88	1933.26
2001 09 08 12	44928.00	0.00	505.38	0.00	24.06	24.06	2016.05
2001 09 09 12	44928.00	1.97	419.71	0.00	23.29	23.29	2120.80
2001 09 10 12	44582.40	1.02	370.89	0.00	24.78	24.78	2392.86
2001 09 11 12	44582.40	0.00	506.07	0.00	24.36	24.36	1863.55
2001 09 12 12	44582.40	0.00	487.57	0.00	22.08	22.08	1408.43
2001 09 13 12	44236.80	0.04	499.66	0.00	21.73	21.73	1500.01
2001 09 14 12	44236.80	0.38	373.06	0.00	19.45	19.45	1503.71
2001 09 15 12	43891.20	0.00	514.29	0.00	13.86	13.86	973.79
2001 09 16 12	43891.20	0.00	505.86	0.00	14.58	14.58	949.08
2001 09 17 12	43548.39	0.00	495.55	0.00	17.56	17.56	1113.62
2001 09 18 12	43545.60	0.00	335.40	0.00	19.48	19.48	1347.20
2001 09 19 12	43545.60	0.00	327.37	0.00	21.62	21.62	1485.98
2001 09 20 12	43200.00	9.64	294.28	0.00	19.05	19.05	1849.14
2001 09 21 12	43200.00	3.28	463.20	0.00	22.78	22.78	1945.11
2001 09 22 12	42854.40	0.04	454.90	0.00	22.61	22.61	1830.48
2001 09 23 12	42854.40	0.00	453.31	0.00	23.66	23.66	1763.06
2001 09 24 12	42854.40	22.48	216.62	0.00	22.78	22.78	2267.95
2001 09 25 12	42508.80	1.62	482.62	0.00	16.93	16.93	1401.07
2001 09 26 12	42508.80	0.00	476.71	0.00	11.22	11.22	778.80
2001 09 27 12	42163.20	0.00	473.45	0.00	14.07	14.07	876.17
2001 09 28 12	42163.20	0.00	373.17	0.00	15.19	15.19	989.95
2001 09 29 12	41817.60	0.00	305.93	0.00	13.47	13.47	971.88
2001 09 30 12	41817.60	0.00	352.77	0.00	14.00	14.00	945.49
2001 10 01 12	41817.60	0.00	471.10	0.00	13.79	13.79	789.25
2001 10 02 12	41472.00	0.00	347.15	0.00	16.88	16.88	1015.90
2001 10 03 12	41472.00	0.00	454.31	0.00	20.86	20.86	1352.45
2001 10 04 12	41126.40	0.00	461.37	0.00	20.00	20.00	1306.31
2001 10 05 12	41126.40	0.00	435.61	0.00	19.63	19.63	1304.16
2001 10 06 12	40780.80	1.23	238.94	0.00	19.12	19.12	1536.68
2001 10 07 12	40780.80	0.00	468.67	0.00	10.63	10.63	635.20
2001 10 08 12	40780.80	0.00	463.34	0.00	7.84	7.84	482.15
2001 10 09 12	40435.20	0.00	458.78	0.00	7.62	7.62	530.86
2001 10 10 12	40435.20	0.00	411.27	0.00	11.92	11.92	848.69
2001 10 11 12	40089.60	0.00	418.11	0.00	17.01	17.01	1317.73
2001 10 12 12	40089.60	0.05	269.57	0.00	18.46	18.46	1478.19
2001 10 13 12	40089.60	0.06	289.25	0.00	21.04	21.04	1681.46
2001 10 14 12	39744.00	16.94	122.65	0.00	17.75	17.75	1809.51
2001 10 15 12	39744.00	0.39	434.63	0.00	16.53	16.53	1255.43
2001 10 16 12	39398.40	0.02	352.51	0.00	14.23	14.23	972.36
2001 10 17 12	39398.40	0.00	437.91	0.00	8.44	8.44	605.71
2001 10 18 12	39395.61	0.00	431.95	0.00	7.91	7.91	527.19
2001 10 19 12	39052.80	0.00	428.62	0.00	10.05	10.05	687.92
2001 10 20 12	39052.80	0.00	417.41	0.00	14.52	14.52	1000.32
2001 10 21 12	38707.20	0.00	414.86	0.00	17.92	17.92	1058.77
2001 10 22 12	38707.20	0.00	409.14	0.00	19.35	19.35	1315.19
2001 10 23 12	38707.20	0.26	331.99	0.00	19.89	19.89	1396.35
2001 10 24 12	38361.60	0.00	397.74	0.00	20.93	20.93	1703.88
2001 10 25 12	38361.60	0.00	376.84	0.00	19.72	19.72	1466.53
2001 10 26 12	38020.47	0.00	418.24	0.00	9.68	9.68	439.85
2001 10 27 12	38016.00	0.00	305.03	0.00	5.55	5.55	419.17
2001 10 28 12	38016.00	0.00	375.89	0.00	6.17	6.17	461.54
2001 10 29 12	37670.40	0.00	401.45	0.00	6.68	6.68	441.88
2001 10 30 12	37670.40	0.00	387.47	0.00	10.65	10.65	526.91
2001 10 31 12	37670.40	0.00	382.07	0.00	11.94	11.94	758.42
2001 11 01 12	37324.80	0.00	379.04	0.00	14.24	14.24	975.91
2001 11 02 12	37324.80	0.00	292.69	0.00	18.67	18.67	1476.34
2001 11 03 12	37322.01	0.00	228.76	0.00	19.00	19.00	1461.14
2001 11 04 12	36979.20	0.00	377.94	0.00	14.27	14.27	756.36
2001 11 05 12	36979.20	0.00	381.37	0.00	11.17	11.17	560.89
2001 11 06 12	36896.49	0.00	376.35	0.00	6.94	6.94	423.83
2001 11 07 12	36633.60	0.00	371.80	0.00	11.15	11.15	441.08
2001 11 08 12	36633.60	0.00	364.00	0.00	14.65	14.65	595.69
2001 11 09 12	36630.81	0.00	365.41	0.00	12.63	12.63	637.28
2001 11 10 12	36288.00	0.00	326.87	0.00	10.35	10.35	490.19
2001 11 11 12	36288.00	0.00	357.20	0.00	10.33	10.33	570.34
2001 11 12 12	36288.00	0.00	358.18	0.00	5.53	5.53	467.97
2001 11 13 12	35942.40	0.00	358.53	0.00	6.14	6.14	424.13
2001 11 14 12	35942.40	0.00	348.96	0.00	8.39	8.39	565.27
2001 11 15 12	35942.40	0.00	345.17	0.00	11.70	11.70	664.42
2001 11 16 12	35659.31	0.00	340.04	0.00	14.11	14.11	655.90
2001 11 17 12	35596.80	0.00	336.67	0.00	14.77	14.77	879.34
2001 11 18 12	35596.80	0.00	334.29	0.00	10.58	10.58	845.76
2001 11 19 12	35596.80	0.00	325.00	0.00	11.74	11.74	901.00
2001 11 20 12	35255.67	0.00	225.90	0.00	12.61	12.61	916.20
2001 11 21 12	35251.20	0.00	339.69	0.00	5.29	5.29	382.56
2001 11 22 12	35251.20	0.00	323.44	0.00	5.88	5.88	396.16
2001 11 23 12	35251.20	0.00	299.08	0.00	9.54	9.54	590.77
2001 11 24 12	34968.11	5.68	73.57	0.00	12.41	12.41	1274.71
2001 11 25 12	34905.60	3.12	202.32	0.00	17.33	17.33	1692.21
2001 11 26 12	34905.60	2.00	313.92	0.00	17.73	17.73	1625.63
2001 11 27 12	34905.60	0.08	303.47	0.00	15.91	15.91	1334.82
2001 11 28 12	34902.81	0.11	300.66	0.00	18.39	18.39	1557.11
2001 11 29 12	34564.47	0.43	281.46	0.00	17.94	17.94	1551.75
2001 11 30 12	34560.00	0.26	92.37	0.00	18.75	18.75	1813.07
2001 12 01 12	34560.00	0.18	307.94	0.00	16.67	16.67	1330.56
2001 12 02 12	34560.00	0.00	184.83	0.00	12.43	12.43	795.96
2001 12 03 12	34560.00	0.00	310.93	0.00	8.74	8.74	610.46
2001 12 04 12	34477.29	0.00	307.83	0.00	10.49	10.49	553.11
2001 12 05 12	34218.87	0.00	302.98	0.00	13.85	13.85	601.89
2001 12 06 12	34214.40	0.00	299.59	0.00	14.72	14.72	1014.71
2001 12 07 12	34214.40	0.22	158.08	0.00	16.43	16.43	1255.03
2001 12 08 12	34214.40	4.90	82.19	0.00	12.66	12.66	1271.71
2001 12 09 12	34214.40	0.64	227.52	0.00	11.89	11.89	1012.81
2001 12 10 12	34214.40	2.91	89.98	0.00	5.05	5.05	636.42
2001 12 11 12	34214.40	39.51	91.83	0.00	6.39	6.39	878.92
2001 12 12 12	34211.61	3.05	133.37	0.00	9.16	9.16	1037.19
2001 12 13 12	34131.69	0.80	124.78	0.00	11.80	11.80	1261.80
2001 12 14 12	34018.32	0.00	163.74	0.00	16.15	16.15	1577.96
2001 12 15 12	33931.31	0.00	299.18	0.00	11.72	11.72	925.03
2001 12 16 12	33873.27	0.00	242.13	0.00	6.26	6.26	596.78
2001 12 17 12	33868.80	4.12	119.69	0.00	6.22	6.22	792.17
2001 12 18 12	33868.80	8.65	299.71	0.00	12.19	12.19	1079.96
2001 12 19 12	33868.80	0.00	295.55	0.00	7.35	7.35	607.94
2001 12 20 12	33868.80	0.00	314.08	0.00	5.74	5.74	539.23
2001 12 21 12	33868.80	0.00	311.80	0.00	1.60	1.60	295.79
2001 12 22 12	33868.80	0.00	308.10	0.00	1.53	1.53	312.14
2001 12 23 12	33868.80	0.00	178.84	0.00	2.73	2.73	523.22
2001 12 24 12	33868.80	9.23	291.29	0.00	7.63	7.63	832.40
2001 12 25 12	33868.80	0.00	280.21	0.00	0.08	0.08	307.06
2001 12 26 12	33873.27	0.00	283.75	0.00	1.20	1.20	339.48
2001 12 27 12	33931.31	0.00	202.90	0.00	-1.83	-1.83	274.68
2001 12 28 12	34018.32	0.00	225.51	0.00	1.80	1.80	384.34
2001 12 29 12	34131.69	0.00	153.36	0.00	3.40	3.40	473.11
2001 12 30 12	34214.40	0.00	315.83	0.00	-1.23	-1.23	266.54
2001 12 31 12	34214.40	0.00	289.16	0.00	-2.11	-2.11	225.44
2002 01 01 12	34214.40	0.00	318.27	0.00	-2.71	-2.71	237.36
2002 01 02 12	34214.40	0.00	239.50	0.00	-4.30	-4.30	198.83
2002 01 03 12	34214.40	3.94	82.31	0.00	-3.21	-3.21	400.63
2002 01 04 12	34214.40	0.00	323.10	0.00	-4.26	-4.26	368.36
2002 01 05 12	34214.40	0.00	304.65	0.00	-4.35	-4.35	341.78
2002 01 06 12	34276.91	17.77	106.79	0.00	-2.79	-2.79	438.20
2002 01 07 12	34557.21	0.00	120.81	0.00	-0.15	-0.15	561.45
2002 01 08 12	34560.00	0.00	294.22	0.00	-2.48	-2.48	405.59
2002 01 09 12	34560.00	0.00	234.29	0.00	-1.17	-1.17	435.87
2002 01 10 12	34560.00	0.00	267.02	0.00	5.62	5.62	772.20
2002 01 11 12	34560.00	0.16	300.81	0.00	7.85	7.85	779.11
2002 01 12 12	34709.52	0.00	329.07	0.00	3.12	3.12	496.10
2002 01 13 12	34905.60	0.09	330.34	0.00	3.83	3.83	498.41
2002 01 14 12	34905.60	0.00	278.44	0.00	4.20	4.20	435.70
2002 01 15 12	34905.60	0.00	298.49	0.00	5.21	5.21	609.38
2002 01 16 12	34905.60	0.00	313.04	0.00	2.85	2.85	409.49
2002 01 17 12	35168.49	0.00	265.03	0.00	4.97	4.97	493.83
2002 01 18 12	35251.20	1.06	307.24	0.00	6.86	6.86	569.07
2002 01 19 12	35251.20	17.33	106.98	0.00	0.82	0.82	449.06
2002 01 20 12	35251.20	4.94	349.09	0.00	-0.84	-0.84	520.15
2002 01 21 12	35400.72	1.71	192.45	0.00	0.55	0.55	553.26
2002 01 22 12	35596.80	0.00	348.78	0.00	3.41	3.41	534.80
2002 01 23 12	35596.80	14.12	85.60	0.00	4.94	4.94	753.85
2002 01 24 12	35596.80	0.11	145.20	0.00	11.58	11.58	1293.01
2002 01 25 12	35939.61	6.10	359.25	0.00	10.42	10.42	911.82
2002 01 26 12	35942.40	0.00	362.53	0.00	5.52	5.52	456.93
2002 01 27 12	35942.40	0.00	362.40	0.00	7.10	7.10	587.90
2002 01 28 12	36091.92	0.00	353.60	0.00	10.42	10.42	893.03
2002 01 29 12	36288.00	0.00	343.63	0.00	13.92	13.92	1041.67
2002 01 30 12	36288.00	0.00	346.86	0.00	17.97	17.97	1435.76
2002 01 31 12	36292.47	0.00	348.87	0.00	17.04	17.04	1500.57
2002 02 01 12	36633.60	0.04	246.38	0.00	18.09	18.09	1589.48
2002 02 02 12	36633.60	0.00	346.41	0.00	5.05	5.05	481.19
2002 02 03 12	36633.60	0.00	291.07	0.00	2.46	2.46	377.37
2002 02 04 12	36979.20	0.00	288.25	0.00	3.16	3.16	419.26
2002 02 05 12	36979.20	0.00	383.48	0.00	-3.04	-3.04	184.71
2002 02 06 12	36979.20	0.00	166.37	0.00	-3.78	-3.78	262.94
2002 02 07 12	37324.80	22.45	137.39	0.00	-0.26	-0.26	561.76
2002 02 08 12	37324.80	0.00	384.89	0.00	4.05	4.05	611.97
2002 02 09 12	37329.27	0.00	391.45	0.00	6.81	6.81	565.17
2002 02 10 12	37670.40	1.80	101.73	0.00	5.17	5.17	771.11
2002 02 11 12	37670.40	0.04	348.79	0.00	7.18	7.18	718.71
2002 02 12 12	37933.29	0.00	393.94	0.00	3.65	3.65	382.57
2002 02 13 12	38016.00	0.00	365.00	0.00	4.24	4.24	437.24
2002 02 14 12	38016.00	0.00	409.62	0.00	2.62	2.62	380.37
2002 02 15 12	38361.60	0.00	368.27	0.00	4.01	4.01	459.62
2002 02 16 12	38361.60	0.02	384.95	0.00	8.91	8.91	660.87
2002 02 17 12	38361.60	0.00	313.34	0.00	5.48	5.48	450.72
2002 02 18 12	38707.20	0.00	420.34	0.00	1.26	1.26	311.87
2002 02 19 12	38707.20	0.00	377.81	0.00	4.33	4.33	366.01
2002 02 20 12	39050.01	0.00	201.15	0.00	10.01	10.01	863.99
2002 02 21 12	39052.80	0.00	380.87	0.00	13.07	13.07	1027.56
2002 02 22 12	39052.80	0.00	362.58	0.00	9.45	9.45	601.87
2002 02 23 12	39398.40	0.00	230.85	0.00	5.21	5.21	520.50
2002 02 24 12	39398.40	0.00	433.29	0.00	4.55	4.55	438.45
2002 02 25 12	39741.21	0.00	420.00	0.00	6.84	6.84	444.73
2002 02 26 12	39744.00	0.39	293.44	0.00	9.16	9.16	695.98
2002 02 27 12	39744.00	0.06	383.45	0.00	3.03	3.03	378.54
2002 02 28 12	40089.60	0.00	444.01	0.00	-2.67	-2.67	223.29
2002 03 01 12	40089.60	0.00	471.56	0.00	-0.14	-0.14	262.55
2002 03 02 12	40435.20	10.43	131.18	0.00	0.62	0.62	466.38
2002 03 03 12	40435.20	15.45	250.43	0.00	12.07	12.07	1237.28
2002 03 04 12	40435.20	0.02	483.60	0.00	0.86	0.86	321.14
2002 03 05 12	40780.80	0.00	405.00	0.00	-2.51	-2.51	238.83
2002 03 06 12	40780.80	0.00	475.56	0.00	3.45	3.45	447.33
2002 03 07 12	41126.40	0.00	462.57	0.00	8.44	8.44	605.75
2002 03 08 12	41126.40	0.00	475.19	0.00	12.44	12.44	747.12
2002 03 09 12	41188.91	2.27	307.56	0.00	14.43	14.43	1261.86
2002 03 10 12	41472.00	0.13	509.14	0.00	10.14	10.14	763.39
2002 03 11 12	41472.00	0.00	502.85	0.00	2.90	2.90	308.01
2002 03 12 12	41817.60	3.04	134.45	0.00	5.76	5.76	766.63
2002 03 13 12	41817.60	7.08	139.41	0.00	10.89	10.89	1228.66
2002 03 14 12	42163.20	0.00	423.79	0.00	14.07	14.07	1242.46
2002 03 15 12	42163.20	0.00	443.58	0.00	18.54	18.54	1553.99
2002 03 16 12	42163.20	2.42	342.95	0.00	18.57	18.57	1550.32
2002 03 17 12	42508.80	29.23	110.38	0.00	11.37	11.37	1169.82
2002 03 18 12	42508.80	13.51	137.24	0.00	7.56	7.56	959.02
2002 03 19 12	42854.40	0.21	141.23	0.00	9.39	9.39	1088.31
2002 03 20 12	42854.40	2.41	222.64	0.00	9.42	9.42	1071.81
2002 03 21 12	43200.00	0.04	474.27	0.00	12.18	12.18	1055.93
2002 03 22 12	43200.00	0.00	499.49	0.00	2.88	2.88	393.29
2002 03 23 12	43200.00	0.00	541.24	0.00	1.19	1.19	312.36
2002 03 24 12	43545.60	0.00	512.41	0.00	6.76	6.76	462.56
2002 03 25 12	43545.60	0.00	482.14	0.00	12.34	12.34	875.86
2002 03 26 12	43891.20	5.63	314.96	0.00	14.54	14.54	1346.99
2002 03 27 12	43891.20	4.51	434.85	0.00	13.17	13.17	1112.71
2002 03 28 12	44236.80	0.00	538.53	0.00	8.11	8.11	647.81
2002 03 29 12	44236.80	0.00	340.03	0.00	11.26	11.26	967.32
2002 03 30 12	44236.80	0.24	365.89	0.00	18.22	18.22	1558.12
2002 03 31 12	44582.40	12.04	142.60	0.00	13.33	13.33	1340.88
2002 04 01 12	44582.40	1.33	493.55	0.00	11.29	11.29	939.69
2002 04 02 12	44928.00	0.00	485.42	0.00	13.72	13.72	839.95
2002 04 03 12	44928.00	0.37	457.75	0.00	19.18	19.18	1524.31
2002 04 04 12	45211.09	0.00	511.30	0.00	8.30	8.30	599.26
2002 04 05 12	45273.60	0.00	365.10	0.00	6.58	6.58	540.07
2002 04 06 12	45273.60	0.00	360.93	0.00	5.25	5.25	442.57
2002 04 07 12	45619.20	0.00	527.43	0.00	5.31	5.31	426.64
2002 04 08 12	45619.20	0.00	337.92	0.00	9.87	9.87	850.16
2002 04 09 12	45964.80	4.21	198.57	0.00	16.49	16.49	1558.16
2002 04 10 12	45964.80	1.34	478.37	0.00	16.84	16.84	1421.85
2002 04 11 12	45964.80	0.00	524.36	0.00	12.65	12.65	956.86
2002 04 12 12	46310.40	0.33	201.60	0.00	13.37	13.37	1305.24
2002 04 13 12	46310.40	0.19	218.62	0.00	18.24	18.24	1746.46
2002 04 14 12	46656.00	0.00	331.49	0.00	20.02	20.02	1781.74
2002 04 15 12	46656.00	2.88	396.49	0.00	21.82	21.82	1888.78
2002 04 16 12	46658.79	0.00	515.93	0.00	23.33	23.33	1703.11
2002 04 17 12	47001.60	0.86	446.86	0.00	24.45	24.45	1746.51
2002 04 18 12	47001.60	1.96	368.01	0.00	24.51	24.51	1720.18
2002 04 19 12	47347.20	4.07	403.95	0.00	24.65	24.65	1721.60
2002 04 20 12	47347.20	0.04	431.23	0.00	23.79	23.79	1717.12
2002 04 21 12	47349.99	11.29	306.83	0.00	19.83	19.83	1769.75
2002 04 22 12	47692.80	1.67	409.96	0.00	16.16	16.16	1411.00
2002 04 23 12	47692.80	0.00	365.42	0.00	10.73	10.73	737.67
2002 04 24 12	48038.40	0.00	493.06	0.00	11.16	11.16	777.33
2002 04 25 12	48038.40	4.50	365.34	0.00	15.57	15.57	1329.23
2002 04 26 12	48038.40	0.00	480.06	0.00	11.48	11.48	641.51
2002 04 27 12	48384.00	0.00	254.14	0.00	12.39	12.39	854.51
2002 04 28 12	48384.00	13.49	324.90	0.00	17.70	17.70	1728.27
2002 04 29 12	48466.71	0.00	518.27	0.00	17.17	17.17	1188.96
2002 04 30 12	48729.60	0.00	534.30	0.00	13.15	13.15	854.49
2002 05 01 12	48729.60	0.00	403.85	0.00	14.76	14.76	1227.24
2002 05 02 12	49070.73	27.63	342.45	0.00	19.51	19.51	1896.41
2002 05 03 12	49075.20	8.54	506.11	0.00	18.80	18.80	1504.00
2002 05 04 12	49075.20	4.86	121.73	0.00	9.92	9.92	946.09
2002 05 05 12	49420.80	1.67	518.10	0.00	12.82	12.82	1176.73
2002 05 06 12	49420.80	0.00	500.63	0.00	16.86	16.86	1378.07
2002 05 07 12	49420.80	1.36	397.96	0.00	20.46	20.46	1844.83
2002 05 08 12	49766.40	0.09	423.73	0.00	22.01	22.01	2017.52
2002 05 09 12	49766.40	9.04	401.66	0.00	23.44	23.44	2259.36
2002 05 10 12	49766.40	0.01	551.09	0.00	22.66	22.66	1763.07
2002 05 11 12	50107.53	0.02	300.91	0.00	16.54	16.54	1090.93
2002 05 12 12	50112.00	0.00	521.29	0.00	20.48	20.48	1766.90
2002 05 13 12	50112.00	19.34	338.45	0.00	23.38	23.38	2277.74
2002 05 14 12	50308.08	0.87	560.07	0.00	14.88	14.88	1137.22
2002 05 15 12	50457.60	0.00	575.61	0.00	13.30	13.30	873.98
2002 05 16 12	50457.60	0.00	545.15	0.00	16.62	16.62	1116.72
2002 05 17 12	50460.39	0.00	474.01	0.00	21.14	21.14	1697.23
2002 05 18 12	50803.20	13.88	310.36	0.00	19.17	19.17	1792.47
2002 05 19 12	50803.20	0.00	435.41	0.00	11.08	11.08	829.07
2002 05 20 12	50803.20	0.00	481.26	0.00	10.89	10.89	746.20
2002 05 21 12	50999.28	0.06	262.56	0.00	11.16	11.16	871.59
2002 05 22 12	51148.80	0.00	555.77	0.00	11.45	11.45	817.26
2002 05 23 12	51148.80	0.00	576.31	0.00	14.34	14.34	890.25
2002 05 24 12	51148.80	0.00	565.45	0.00	18.39	18.39	1235.18
2002 05 25 12	51231.51	0.00	555.94	0.00	22.28	22.28	1714.94
2002 05 26 12	51494.40	0.00	530.17	0.00	22.25	22.25	1823.70
2002 05 27 12	51494.40	3.11	368.15	0.00	22.75	22.75	2038.47
2002 05 28 12	51494.40	10.20	545.56	0.00	22.82	22.82	1985.34
2002 05 29 12	51494.40	0.00	461.15	0.00	22.54	22.54	2007.53
2002 05 30 12	51690.48	0.00	433.85	0.00	23.60	23.60	2204.79
2002 05 31 12	51840.00	0.10	467.71	0.00	25.24	25.24	2261.66
2002 06 01 12	51840.00	0.12	511.37	0.00	25.69	25.69	2089.15
2002 06 02 12	51840.00	0.19	549.36	0.00	25.46	25.46	2014.59
2002 06 03 12	51840.00	0.00	553.15	0.00	22.56	22.56	1574.99
2002 06 04 12	51842.79	0.12	416.14	0.00	23.74	23.74	2129.82
2002 06 05 12	52123.09	5.33	513.03	0.00	27.41	27.41	2528.50
2002 06 06 12	52185.60	2.51	353.22	0.00	27.01	27.01	2513.75
2002 06 07 12	52185.60	3.12	496.26	0.00	22.27	22.27	1872.00
2002 06 08 12	52185.60	0.00	556.83	0.00	18.72	18.72	1471.74
2002 06 09 12	52185.60	0.00	563.80	0.00	20.16	20.16	1472.31
2002 06 10 12	52185.60	0.00	556.87	0.00	24.46	24.46	1791.26
2002 06 11 12	52185.60	0.00	561.23	0.00	25.67	25.67	1819.08
2002 06 12 12	52185.60	0.00	549.79	0.00	25.53	25.53	1823.34
2002 06 13 12	52268.31	0.00	397.58	0.00	25.79	25.79	2132.98
2002 06 14 12	52381.68	1.31	312.34	0.00	25.90	25.90	2300.82
2002 06 15 12	52468.69	0.01	522.95	0.00	22.34	22.34	1633.29
2002 06 16 12	52526.73	0.00	488.22	0.00	20.85	20.85	1345.58
2002 06 17 12	52531.20	0.09	562.18	0.00	22.97	22.97	1449.14
2002 06 18 12	52531.20	0.02	508.45	0.00	23.16	23.16	1414.95
2002 06 19 12	52531.20	0.39	422.70	0.00	24.66	24.66	1954.01
2002 06 20 12	52531.20	0.24	499.52	0.00	24.34	24.34	1968.67
2002 06 21 12	52531.20	0.00	561.58	0.00	22.38	22.38	1578.27
2002 06 22 12	52531.20	0.00	563.46	0.00	22.87	22.87	1567.02
2002 06 23 12	52531.20	0.00	531.46	0.00	25.35	25.35	1973.57
2002 06 24 12	52531.20	0.00	494.54	0.00	27.72	27.72	2118.20
2002 06 25 12	52531.20	0.00	453.14	0.00	30.12	30.12	2298.20
2002 06 26 12	52526.73	3.35	422.22	0.00	28.89	28.89	2278.81
2002 06 27 12	52468.69	15.29	371.58	0.00	26.80	26.80	2487.77
2002 06 28 12	52381.68	3.24	364.53	0.00	25.29	25.29	2386.79
2002 06 29 12	52268.31	0.13	524.69	0.00	26.21	26.21	2005.69
2002 06 30 12	52188.39	0.00	412.05	0.00	27.65	27.65	2281.79
2002 07 01 12	52185.60	0.00	371.23	0.00	28.56	28.56	2327.58
2002 07 02 12	52185.60	0.02	517.08	0.00	29.87	29.87	2316.63
2002 07 03 12	52185.60	14.98	391.43	0.00	30.36	30.36	2373.29
2002 07 04 12	52185.60	0.17	487.28	0.00	30.53	30.53	2307.95
2002 07 05 12	52185.60	5.29	458.11	0.00	31.29	31.29	2272.72
2002 07 06 12	52185.60	0.00	575.74	0.00	25.57	25.57	1787.67
2002 07 07 12	52181.13	0.00	459.79	0.00	25.68	25.68	1548.32
2002 07 08 12	51922.71	0.00	572.53	0.00	27.55	27.55	1810.78
2002 07 09 12	51840.00	1.33	355.65	0.00	28.45	28.45	1964.29
2002 07 10 12	51840.00	3.88	357.04	0.00	28.36	28.36	2266.90
2002 07 11 12	51840.00	1.91	360.84	0.00	23.83	23.83	1874.01
2002 07 12 12	51840.00	0.00	545.25	0.00	22.31	22.31	1172.80
2002 07 13 12	51835.53	0.47	203.08	0.00	21.37	21.37	1852.98
2002 07 14 12	51497.19	25.44	243.93	0.00	21.78	21.78	2346.14
2002 07 15 12	51494.40	0.00	419.01	0.00	22.30	22.30	2107.08
2002 07 16 12	51494.40	0.00	567.04	0.00	27.49	27.49	2129.73
2002 07 17 12	51494.40	0.00	558.60	0.00	28.49	28.49	1799.08
2002 07 18 12	51431.89	0.01	473.44	0.00	29.92	29.92	2173.51
2002 07 19 12	51148.80	0.76	436.82	0.00	27.90	27.90	2222.09
2002 07 20 12	51148.80	0.96	412.43	0.00	27.47	27.47	2107.18
2002 07 21 12	51148.80	3.70	365.74	0.00	28.32	28.32	2343.62
2002 07 22 12	51144.33	0.00	381.69	0.00	28.81	28.81	2430.17
2002 07 23 12	50803.20	4.30	370.15	0.00	27.09	27.09	2413.28
2002 07 24 12	50803.20	1.08	331.74	0.00	26.54	26.54	2495.22
2002 07 25 12	50803.20	0.50	367.46	0.00	25.62	25.62	2442.42
2002 07 26 12	50740.69	31.96	415.48	0.00	23.99	23.99	2376.43
2002 07 27 12	50457.60	15.05	311.39	0.00	26.95	26.95	2640.20
2002 07 28 12	50457.60	0.15	428.68	0.00	28.23	28.23	2604.58
2002 07 29 12	50457.60	0.00	533.52	0.00	30.16	30.16	2482.59
2002 07 30 12	50112.00	0.01	559.94	0.00	29.78	29.78	2215.83
2002 07 31 12	50112.00	0.30	481.24	0.00	28.11	28.11	2048.28
2002 08 01 12	50112.00	0.90	500.74	0.00	28.91	28.91	2065.98
2002 08 02 12	49849.11	1.07	371.60	0.00	30.44	30.44	2423.68
2002 08 03 12	49766.40	0.15	428.10	0.00	29.08	29.08	2391.17
2002 08 04 12	49766.40	1.44	556.40	0.00	27.82	27.82	2108.18
2002 08 05 12	49503.51	0.00	522.06	0.00	28.84	28.84	2225.10
2002 08 06 12	49420.80	0.00	572.44	0.00	29.44	29.44	2029.01
2002 08 07 12	49420.80	0.00	586.85	0.00	21.16	21.16	1131.41
2002 08 08 12	49077.99	0.00	557.58	0.00	22.80	22.80	1134.49
2002 08 09 12	49075.20	0.00	457.18	0.00	23.96	23.96	1179.82
2002 08 10 12	49075.20	0.00	570.60	0.00	24.43	24.43	1273.20
2002 08 11 12	48729.60	0.00	516.79	0.00	26.51	26.51	1517.51
2002 08 12 12	48729.60	0.00	532.60	0.00	30.32	30.32	1765.70
2002 08 13 12	48729.60	0.00	528.26	0.00	31.60	31.60	1828.85
2002 08 14 12	48384.00	0.00	430.31	0.00	28.37	28.37	1789.86
2002 08 15 12	48384.00	2.86	360.63	0.00	27.02	27.02	2160.26
2002 08 16 12	48379.53	2.49	297.38	0.00	27.92	27.92	2478.72
2002 08 17 12	48038.40	3.23	335.35	0.00	28.32	28.32	2296.94
2002 08 18 12	48038.40	7.77	447.43	0.00	28.37	28.37	2396.73
2002 08 19 12	47692.80	0.00	461.73	0.00	29.45	29.45	2211.17
2002 08 20 12	47692.80	0.00	528.27	0.00	29.24	29.24	1961.80
2002 08 21 12	47692.80	0.00	346.41	0.00	27.23	27.23	1907.39
2002 08 22 12	47347.20	0.00	413.97	0.00	29.65	29.65	2410.34
2002 08 23 12	47347.20	0.00	528.90	0.00	31.02	31.02	2136.21
2002 08 24 12	47004.39	5.38	441.34	0.00	30.44	30.44	2212.96
2002 08 25 12	47001.60	0.00	453.50	0.00	26.76	26.76	2007.53
2002 08 26 12	47001.60	10.01	292.96	0.00	24.93	24.93	2283.31
2002 08 27 12	46656.00	2.10	185.15	0.00	22.26	22.26	2155.61
2002 08 28 12	46656.00	36.12	218.26	0.00	19.79	19.79	2120.62
2002 08 29 12	46310.40	1.26	169.17	0.00	20.56	20.56	2162.99
2002 08 30 12	46310.40	1.55	217.93	0.00	20.35	20.35	2091.71
2002 08 31 12	46310.40	2.98	154.02	0.00	19.41	19.41	2081.62
2002 09 01 12	45964.80	6.69	213.25	0.00	19.87	19.87	2038.60
2002 09 02 12	45964.80	0.00	478.12	0.00	22.57	22.57	2079.02
2002 09 03 12	45619.20	0.75	401.52	0.00	24.98	24.98	2168.27
2002 09 04 12	45619.20	0.00	494.24	0.00	27.71	27.71	2269.44
2002 09 05 12	45619.20	0.00	520.07	0.00	23.94	23.94	1523.71
2002 09 06 12	45273.60	0.00	509.21	0.00	22.99	22.99	1583.17
2002 09 07 12	45273.60	0.00	509.36	0.00	22.11	22.11	1674.26
2002 09 08 12	44928.00	0.00	508.07	0.00	22.71	22.71	1759.00
2002 09 09 12	44928.00	0.04	513.34	0.00	23.35	23.35	1588.41
2002 09 10 12	44582.40	0.00	286.53	0.00	24.06	24.06	1833.16
2002 09 11 12	44582.40	0.00	487.45	0.00	24.55	24.55	1600.22
2002 09 12 12	44582.40	0.00	512.21	0.00	18.95	18.95	1046.82
2002 09 13 12	44236.80	0.00	502.28	0.00	20.56	20.56	1287.55
2002 09 14 12	44236.80	4.91	310.29	0.00	22.85	22.85	2128.51
2002 09 15 12	43891.20	8.22	145.32	0.00	21.03	21.03	2252.81
2002 09 16 12	43891.20	3.04	302.72	0.00	22.33	22.33	2224.92
2002 09 17 12	43548.39	0.58	485.18	0.00	24.87	24.87	2090.03
2002 09 18 12	43545.60	0.01	363.70	0.00	24.87	24.87	2005.35
2002 09 19 12	43545.60	0.12	414.15	0.00	25.20	25.20	2220.56
2002 09 20 12	43200.00	0.00	340.71	0.00	25.73	25.73	2359.53
2002 09 21 12	43200.00	0.00	217.26	0.00	25.15	25.15	2301.85
2002 09 22 12	42854.40	0.92	305.05	0.00	25.32	25.32	2219.41
2002 09 23 12	42854.40	5.28	454.22	0.00	23.28	23.28	1952.08
2002 09 24 12	42854.40	0.22	380.71	0.00	19.93	19.93	1404.33
2002 09 25 12	42508.80	0.00	168.46	0.00	19.00	19.00	1323.09
2002 09 26 12	42508.80	27.35	94.65	0.00	18.42	18.42	1926.12
2002 09 27 12	42163.20	7.53	247.09	0.00	22.71	22.71	2517.67
2002 09 28 12	42163.20	0.00	461.56	0.00	22.83	22.83	1970.23
2002 09 29 12	41817.60	0.00	331.54	0.00	19.21	19.21	1572.06
2002 09 30 12	41817.60	0.04	438.93	0.00	21.51	21.51	1725.36
2002 10 01 12	41817.60	0.00	393.68	0.00	22.57	22.57	1948.29
2002 10 02 12	41472.00	0.00	406.96	0.00	23.94	23.94	2006.90
2002 10 03 12	41472.00	0.04	441.80	0.00	25.41	25.41	2044.39
2002 10 04 12	41126.40	0.06	338.40	0.00	26.19	26.19	2230.94
2002 10 05 12	41126.40	0.00	386.59	0.00	25.48	25.48	2248.97
2002 10 06 12	40780.80	0.00	335.28	0.00	20.41	20.41	1518.69
2002 10 07 12	40780.80	0.00	374.27	0.00	21.92	21.92	1743.38
2002 10 08 12	40780.80	0.00	308.35	0.00	16.90	16.90	1048.40
2002 10 09 12	40435.20	0.00	120.70	0.00	14.92	14.92	1311.12
2002 10 10 12	40435.20	2.15	112.29	0.00	17.02	17.02	1794.38
2002 10 11 12	40089.60	32.92	207.21	0.00	18.98	18.98	2056.32
2002 10 12 12	40089.60	0.85	340.69	0.00	18.50	18.50	1793.38
2002 10 13 12	40089.60	1.54	360.76	0.00	19.88	19.88	1808.98
2002 10 14 12	39744.00	0.01	437.18	0.00	15.81	15.81	1221.75
2002 10 15 12	39744.00	0.22	104.68	0.00	8.91	8.91	947.75
2002 10 16 12	39398.40	31.36	120.06	0.00	12.03	12.03	1319.38
2002 10 17 12	39398.40	0.08	343.12	0.00	13.37	13.37	1206.57
2002 10 18 12	39395.61	0.00	423.86	0.00	9.22	9.22	735.91
2002 10 19 12	39052.80	0.00	296.31	0.00	12.30	12.30	953.80
2002 10 20 12	39052.80	0.18	142.36	0.00	15.13	15.13	1375.28
2002 10 21 12	38707.20	8.23	87.66	0.00	12.56	12.56	1364.19
2002 10 22 12	38707.20	0.10	236.90	0.00	11.40	11.40	1163.08
2002 10 23 12	38707.20	0.00	406.15	0.00	13.59	13.59	1137.11
2002 10 24 12	38361.60	0.03	202.69	0.00	12.43	12.43	1128.21
2002 10 25 12	38361.60	4.50	92.21	0.00	10.31	10.31	1130.88
2002 10 26 12	38020.47	11.92	368.31	0.00	14.80	14.80	1381.78
2002 10 27 12	38016.00	0.04	241.32	0.00	16.40	16.40	1321.17
2002 10 28 12	38016.00	17.77	87.70	0.00	15.10	15.10	1505.30
2002 10 29 12	37670.40	12.17	84.10	0.00	8.78	8.78	1062.48
2002 10 30 12	37670.40	17.11	147.22	0.00	4.03	4.03	720.30
2002 10 31 12	37670.40	0.00	240.09	0.00	7.15	7.15	846.00
2002 11 01 12	37324.80	0.00	242.89	0.00	8.48	8.48	771.94
2002 11 02 12	37324.80	0.00	386.96	0.00	5.57	5.57	508.41
2002 11 03 12	37322.01	0.00	224.10	0.00	4.90	4.90	468.02
2002 11 04 12	36979.20	5.11	191.37	0.00	7.34	7.34	834.68
2002 11 05 12	36979.20	13.61	94.81	0.00	8.36	8.36	967.20
2002 11 06 12	36896.49	10.09	190.65	0.00	9.66	9.66	1017.61
2002 11 07 12	36633.60	0.00	279.89	0.00	7.00	7.00	681.37
2002 11 08 12	36633.60	0.00	365.40	0.00	8.23	8.23	777.35
2002 11 09 12	36630.81	0.00	355.79	0.00	10.86	10.86	1005.30
2002 11 10 12	36288.00	0.00	167.59	0.00	16.65	16.65	1698.45
2002 11 11 12	36288.00	37.31	176.41	0.00	19.68	19.68	2025.81
2002 11 12 12	36288.00	30.96	98.82	0.00	13.89	13.89	1492.26
2002 11 13 12	35942.40	0.01	328.25	0.00	9.30	9.30	936.65
2002 11 14 12	35942.40	0.00	327.27	0.00	6.89	6.89	688.10
2002 11 15 12	35942.40	0.00	168.62	0.00	6.86	6.86	795.39
2002 11 16 12	35659.31	24.42	86.89	0.00	9.68	9.68	1135.19
2002 11 17 12	35596.80	15.06	98.23	0.00	11.51	11.51	1297.07
2002 11 18 12	35596.80	0.00	338.10	0.00	5.56	5.56	655.66
2002 11 19 12	35596.80	0.38	234.60	0.00	6.20	6.20	694.04
2002 11 20 12	35255.67	0.00	316.29	0.00	8.48	8.48	820.52
2002 11 21 12	35251.20	0.71	138.39	0.00	9.72	9.72	1038.46
2002 11 22 12	35251.20	0.00	221.52	0.00	9.62	9.62	988.64
2002 11 23 12	35251.20	0.00	331.48	0.00	4.29	4.29	515.38
2002 11 24 12	34968.11	0.00	327.69	0.00	6.85	6.85	649.19
2002 11 25 12	34905.60	0.00	323.82	0.00	10.06	10.06	809.17
2002 11 26 12	34905.60	0.00	186.69	0.00	7.60	7.60	782.61
2002 11 27 12	34905.60	0.00	249.39	0.00	5.62	5.62	663.52
2002 11 28 12	34902.81	0.00	248.00	0.00	0.91	0.91	389.25
2002 11 29 12	34564.47	0.00	306.20	0.00	0.46	0.46	402.58
2002 11 30 12	34560.00	0.00	213.64	0.00	3.95	3.95	568.46
2002 12 01 12	34560.00	0.00	260.17	0.00	0.40	0.40	321.32
2002 12 02 12	34560.00	0.00	289.76	0.00	0.36	0.36	345.38
2002 12 03 12	34560.00	0.00	192.40	0.00	1.77	1.77	452.97
2002 12 04 12	34477.29	1.93	133.76	0.00	-5.02	-5.02	265.56
2002 12 05 12	34218.87	28.75	122.70	0.00	-3.41	-3.41	445.10
2002 12 06 12	34214.40	0.00	319.88	0.00	-2.01	-2.01	472.38
2002 12 07 12	34214.40	0.03	321.46	0.00	-4.45	-4.45	381.15
2002 12 08 12	34214.40	0.00	307.61	0.00	-0.53	-0.53	444.34
2002 12 09 12	34214.40	0.00	318.38	0.00	-0.74	-0.74	446.64
2002 12 10 12	34214.40	0.00	97.91	0.00	-1.66	-1.66	465.22
2002 12 11 12	34214.40	19.94	76.88	0.00	0.89	0.89	602.89
2002 12 12 12	34211.61	0.00	297.32	0.00	4.22	4.22	737.01
2002 12 13 12	34131.69	14.51	91.51	0.00	3.09	3.09	696.26
2002 12 14 12	34018.32	0.00	198.03	0.00	5.41	5.41	764.85
2002 12 15 12	33931.31	0.00	306.93	0.00	3.97	3.97	588.21
2002 12 16 12	33873.27	0.00	227.98	0.00	4.48	4.48	607.98
2002 12 17 12	33868.80	0.00	276.75	0.00	1.37	1.37	432.11
2002 12 18 12	33868.80	0.27	161.72	0.00	2.34	2.34	517.49
2002 12 19 12	33868.80	0.00	97.21	0.00	5.52	5.52	818.14
2002 12 20 12	33868.80	15.03	187.32	0.00	13.04	13.04	1314.26
2002 12 21 12	33868.80	0.00	307.97	0.00	4.99	4.99	523.94
2002 12 22 12	33868.80	0.00	209.28	0.00	5.60	5.60	581.31
2002 12 23 12	33868.80	0.00	275.06	0.00	5.83	5.83	581.01
2002 12 24 12	33868.80	24.15	84.59	0.00	4.31	4.31	669.42
2002 12 25 12	33868.80	11.69	170.03	0.00	1.01	1.01	581.59
2002 12 26 12	33873.27	0.00	308.11	0.00	0.99	0.99	457.52
2002 12 27 12	33931.31	0.00	256.08	0.00	0.56	0.56	391.26
2002 12 28 12	34018.32	0.00	299.77	0.00	1.73	1.73	409.39
2002 12 29 12	34131.69	0.00	300.51	0.00	3.58	3.58	566.82
2002 12 30 12	34214.40	0.00	300.69	0.00	4.77	4.77	656.75
2002 12 31 12	34214.40	0.00	240.95	0.00	7.89	7.89	860.03
