  41.91
 477.00
 831030801
Year	Mnth	Day	Hr	dayl(s)	prcp(mm/day)	srad(W/m2)	swe(mm)	tmax(C)	tmin(C)	vp(Pa)
2000	1	1	12	32486.4	0.79	214.77	0.0	3.12	-7.35	367.35
2000	1	2	12	32486.4	2.99	234.68	0.0	10.84	-5.63	457.09
2000	1	3	12	32486.4	16.37	216.93	0.0	14.25	1.31	700.54
2000	1	4	12	32486.4	7.3	182.41	0.0	12.88	5.12	803.13
2000	1	5	12	32613.94	1.31	233.04	0.0	9.16	-5.91	442.87
2000	1	6	12	32815.44	0.31	171.84	0.0	3.98	-7.6	347.26
2000	1	7	12	32832.0	0.77	174.73	0.0	2.58	-3.62	423.7
2000	1	8	12	32832.0	0.2	226.27	0.0	1.42	-6.22	379.37
2000	1	9	12	32832.0	0.0	259.6	0.0	3.75	-5.35	421.69
2000	1	10	12	32890.35	6.93	163.98	0.0	5.47	-0.35	572.96
2000	1	11	12	33161.05	6.06	179.42	0.0	7.95	0.4	608.04
2000	1	12	12	33177.6	2.56	146.44	0.0	4.91	-2.71	489.76
2000	1	13	12	33177.6	2.12	141.72	0.0	0.8	-4.75	387.91
2000	1	14	12	33179.52	0.92	229.89	0.0	-3.26	-14.5	210.6
2000	1	15	12	33445.07	0.12	245.64	0.0	-5.08	-12.22	217.61
2000	1	16	12	33523.2	0.17	246.76	0.0	2.66	-10.59	242.86
2000	1	17	12	33523.2	0.04	312.29	0.0	-0.31	-17.27	159.31
2000	1	18	12	33581.55	1.03	202.93	0.0	-5.43	-17.51	142.67
2000	1	19	12	33868.8	3.49	219.1	0.0	-5.5	-14.0	194.13
2000	1	20	12	33868.8	4.77	155.01	0.0	-4.43	-8.74	258.09
2000	1	21	12	33868.8	4.16	238.21	0.0	-4.88	-15.11	177.02
2000	1	22	12	34197.84	0.95	232.11	0.0	-7.99	-18.06	135.7
2000	1	23	12	34214.4	0.25	249.96	0.0	-6.93	-16.48	159.24
2000	1	24	12	34214.4	0.51	237.6	0.0	-2.98	-11.19	213.56
2000	1	25	12	34543.44	0.56	256.4	0.0	-5.12	-17.9	150.31
2000	1	26	12	34560.0	1.62	235.09	0.0	-6.48	-15.37	155.8
2000	1	27	12	34560.0	0.93	257.54	0.0	-6.58	-18.92	127.26
2000	1	28	12	34905.6	0.14	291.76	0.0	-9.1	-18.56	121.17
2000	1	29	12	34905.6	0.06	297.48	0.0	-4.97	-19.99	118.95
2000	1	30	12	34907.52	1.43	275.93	0.0	0.75	-18.0	163.74
2000	1	31	12	35251.2	0.61	227.65	0.0	-0.37	-7.86	291.43
2000	2	1	12	35251.2	2.15	192.46	0.0	-2.22	-8.34	289.4
2000	2	2	12	35449.98	1.13	204.79	0.0	-3.98	-10.07	252.36
2000	2	3	12	35596.8	2.79	208.16	0.0	-5.6	-11.78	236.88
2000	2	4	12	35596.8	1.36	191.39	0.0	-1.77	-6.92	294.45
2000	2	5	12	35942.4	0.63	299.38	0.0	-0.1	-15.46	189.69
2000	2	6	12	35942.4	0.12	362.55	0.0	-1.12	-13.82	195.49
2000	2	7	12	36209.87	0.06	294.07	0.0	-0.9	-10.58	221.42
2000	2	8	12	36288.0	0.02	385.02	0.0	-0.19	-21.28	119.27
2000	2	9	12	36289.92	0.0	389.92	0.0	0.58	-21.31	138.88
2000	2	10	12	36633.6	5.69	291.36	0.0	7.42	-6.82	331.71
2000	2	11	12	36633.6	1.59	314.25	0.0	7.4	-6.15	343.81
2000	2	12	12	36979.2	0.03	388.75	0.0	2.0	-15.87	187.31
2000	2	13	12	36979.2	5.47	297.24	0.0	-1.79	-14.76	193.18
2000	2	14	12	37246.67	5.94	246.42	0.0	-0.03	-7.95	293.92
2000	2	15	12	37324.8	1.55	250.69	0.0	0.03	-7.36	321.17
2000	2	16	12	37383.15	0.64	262.47	0.0	1.56	-6.87	327.42
2000	2	17	12	37670.4	0.21	316.29	0.0	2.85	-9.46	285.91
2000	2	18	12	37670.4	4.19	252.44	0.0	0.14	-8.82	296.56
2000	2	19	12	38016.0	1.39	140.7	0.0	-1.86	-4.85	370.94
2000	2	20	12	38016.0	0.66	140.17	0.0	-2.51	-5.34	371.77
2000	2	21	12	38361.6	0.15	168.9	0.0	-2.33	-5.07	379.6
2000	2	22	12	38361.6	0.0	370.38	0.0	4.99	-4.39	428.97
2000	2	23	12	38707.2	0.0	388.54	0.0	11.7	-0.89	562.57
2000	2	24	12	38707.2	5.24	311.98	0.0	13.87	1.61	672.54
2000	2	25	12	39052.8	1.38	411.38	0.0	16.3	2.39	701.04
2000	2	26	12	39052.8	0.0	408.17	0.0	15.69	2.71	718.14
2000	2	27	12	39398.4	5.3	325.87	0.0	18.34	2.95	722.05
2000	2	28	12	39398.4	1.4	436.07	0.0	15.43	-1.16	540.01
2000	2	29	12	39727.44	3.48	386.97	0.0	9.79	-6.34	490.36
2000	3	1	12	39744.0	5.57	341.34	0.0	10.79	-4.36	440.69
2000	3	2	12	40011.47	1.56	349.43	0.0	10.11	-1.66	487.94
2000	3	3	12	40089.6	0.03	257.48	0.0	6.04	-5.21	380.48
2000	3	4	12	40288.38	0.0	431.74	0.0	5.91	-6.33	354.8
2000	3	5	12	40435.2	0.0	452.68	0.0	9.29	-5.66	372.55
2000	3	6	12	40562.74	0.0	455.43	0.0	9.11	-5.48	388.71
2000	3	7	12	40780.8	0.0	466.14	0.0	13.69	-3.58	470.94
2000	3	8	12	40908.34	0.02	414.73	0.0	20.87	-0.39	632.3
2000	3	9	12	41126.4	2.01	356.33	0.0	23.64	3.86	763.9
2000	3	10	12	41184.75	0.87	399.65	0.0	18.6	-1.27	566.26
2000	3	11	12	41472.0	6.82	195.78	0.0	12.37	-2.77	461.72
2000	3	12	12	41473.92	2.28	227.49	0.0	2.02	-3.49	417.57
2000	3	13	12	41817.6	0.34	312.23	0.0	1.39	-6.83	344.56
2000	3	14	12	41819.52	0.23	369.0	0.0	4.9	-5.42	376.43
2000	3	15	12	42163.2	0.07	459.84	0.0	10.34	-3.28	455.58
2000	3	16	12	42165.12	7.97	373.04	0.0	16.46	0.37	551.67
2000	3	17	12	42508.8	2.18	377.95	0.0	10.54	-6.38	355.13
2000	3	18	12	42508.8	0.02	460.49	0.0	2.93	-11.59	234.04
2000	3	19	12	42854.4	0.0	508.99	0.0	7.11	-9.95	298.1
2000	3	20	12	42854.4	0.03	402.87	0.0	10.18	-0.48	533.09
2000	3	21	12	43200.0	0.15	311.78	0.0	11.91	2.68	670.93
2000	3	22	12	43543.68	0.04	337.7	0.0	9.68	2.61	668.82
2000	3	23	12	43545.6	0.0	409.21	0.0	12.74	3.06	661.99
2000	3	24	12	43889.28	1.22	366.02	0.0	15.93	-0.26	606.48
2000	3	25	12	43891.2	0.64	370.03	0.0	19.99	1.9	664.81
2000	3	26	12	44234.88	0.08	485.83	0.0	19.0	0.85	597.09
2000	3	27	12	44236.8	2.8	344.29	0.0	13.66	-1.62	508.19
2000	3	28	12	44580.48	4.55	359.61	0.0	11.23	-2.98	463.29
2000	3	29	12	44582.4	2.91	347.69	0.0	9.75	-2.85	473.53
2000	3	30	12	44926.08	0.5	218.09	0.0	7.15	-0.28	507.73
2000	3	31	12	44928.0	0.0	479.09	0.0	7.5	-5.34	386.21
2000	4	1	12	45215.25	0.73	381.21	0.0	12.88	-4.37	432.79
2000	4	2	12	45273.6	6.61	379.61	0.0	16.45	-1.51	573.82
2000	4	3	12	45491.66	21.21	234.19	0.0	13.76	5.8	820.23
2000	4	4	12	45619.2	9.8	303.88	0.0	15.24	5.61	777.94
2000	4	5	12	45837.26	1.87	323.01	0.0	9.99	-2.74	488.42
2000	4	6	12	45964.8	0.17	431.19	0.0	7.33	-2.47	464.38
2000	4	7	12	46111.62	16.29	379.42	0.0	13.56	-1.3	518.68
2000	4	8	12	46310.4	21.07	345.91	0.0	9.33	-1.67	493.16
2000	4	9	12	46388.53	5.99	382.7	0.0	7.52	-4.25	421.95
2000	4	10	12	46656.0	0.42	376.23	0.0	4.24	-4.05	419.99
2000	4	11	12	46672.56	1.98	276.48	0.0	4.89	-2.34	468.51
2000	4	12	12	47001.6	0.53	398.07	0.0	6.16	-2.29	456.49
2000	4	13	12	47001.6	0.0	469.08	0.0	6.84	-3.66	427.68
2000	4	14	12	47347.2	0.0	530.47	0.0	13.02	-2.59	516.9
2000	4	15	12	47347.2	0.0	529.42	0.0	21.84	4.35	782.55
2000	4	16	12	47692.8	0.6	380.62	0.0	21.68	6.62	911.31
2000	4	17	12	47692.8	1.22	366.72	0.0	18.39	5.65	855.7
2000	4	18	12	48038.4	0.28	357.08	0.0	14.42	4.9	787.74
2000	4	19	12	48038.4	0.0	366.63	0.0	12.01	4.99	809.79
2000	4	20	12	48384.0	20.3	263.89	0.0	13.93	7.17	923.67
2000	4	21	12	48384.0	9.66	283.42	0.0	14.45	7.1	915.24
2000	4	22	12	48729.6	1.81	303.26	0.0	12.75	4.95	806.2
2000	4	23	12	48729.6	0.18	274.64	0.0	10.64	3.78	708.51
2000	4	24	12	49016.85	0.0	511.06	0.0	11.66	0.06	568.0
2000	4	25	12	49075.2	0.0	559.41	0.0	16.64	-0.78	527.55
2000	4	26	12	49153.33	0.0	565.32	0.0	14.52	-2.86	467.43
2000	4	27	12	49420.8	0.0	554.08	0.0	12.8	-2.15	477.66
2000	4	28	12	49420.8	0.0	560.46	0.0	14.23	-1.56	509.38
2000	4	29	12	49766.4	0.0	565.72	0.0	18.44	-0.28	567.55
2000	4	30	12	49766.4	0.0	564.76	0.0	18.85	0.72	609.53
2000	5	1	12	50110.08	9.14	415.37	0.0	17.11	1.11	654.7
2000	5	2	12	50112.0	2.4	552.27	0.0	19.1	3.26	688.09
2000	5	3	12	50190.13	0.02	516.65	0.0	15.57	0.77	627.03
2000	5	4	12	50457.6	0.76	448.82	0.0	22.39	1.49	705.47
2000	5	5	12	50457.6	0.2	549.53	0.0	21.62	5.56	899.43
2000	5	6	12	50803.2	0.0	513.46	0.0	26.44	12.24	1257.78
2000	5	7	12	50803.2	0.9	388.72	0.0	27.84	12.75	1384.44
2000	5	8	12	50950.02	0.37	410.29	0.0	27.57	12.94	1411.94
2000	5	9	12	51148.8	1.1	393.3	0.0	27.52	14.01	1486.5
2000	5	10	12	51148.8	9.14	377.52	0.0	28.53	14.49	1412.78
2000	5	11	12	51492.48	2.34	490.56	0.0	23.41	5.86	902.06
2000	5	12	12	51494.4	0.0	537.87	0.0	20.88	6.19	1005.04
2000	5	13	12	51494.4	2.21	335.75	0.0	26.61	15.85	1453.34
2000	5	14	12	51840.0	0.62	479.03	0.0	21.91	5.66	877.09
2000	5	15	12	51840.0	0.01	517.03	0.0	17.18	1.71	629.21
2000	5	16	12	51856.56	0.0	563.98	0.0	15.52	-0.01	574.7
2000	5	17	12	52185.6	3.4	450.19	0.0	18.43	0.91	685.06
2000	5	18	12	52185.6	49.29	417.03	0.0	24.13	6.76	963.49
2000	5	19	12	52202.16	14.45	392.9	0.0	22.34	9.77	1119.14
2000	5	20	12	52531.2	1.07	139.52	0.0	19.13	8.38	1045.39
2000	5	21	12	52531.2	0.55	178.04	0.0	12.1	7.68	972.44
2000	5	22	12	52531.2	0.1	369.14	0.0	13.19	5.92	888.6
2000	5	23	12	52818.45	5.98	375.28	0.0	19.02	6.89	996.32
2000	5	24	12	52876.8	6.07	240.36	0.0	16.64	10.13	1142.76
2000	5	25	12	52876.8	1.23	448.45	0.0	22.38	9.11	1043.78
2000	5	26	12	52954.93	0.01	526.83	0.0	18.07	4.99	854.23
2000	5	27	12	53220.48	0.02	467.91	0.0	18.39	6.71	894.38
2000	5	28	12	53222.4	0.01	522.35	0.0	18.16	5.48	844.24
2000	5	29	12	53222.4	0.0	459.34	0.0	15.59	5.9	869.48
2000	5	30	12	53238.95	0.0	518.55	0.0	19.56	7.26	971.29
2000	5	31	12	53509.65	7.51	377.65	0.0	21.23	9.43	1156.3
2000	6	1	12	53568.0	2.59	417.6	0.0	26.57	11.93	1400.75
2000	6	2	12	53568.0	12.46	355.21	0.0	27.15	15.81	1541.58
2000	6	3	12	53568.0	3.24	553.59	0.0	24.61	8.67	1061.41
2000	6	4	12	53584.56	0.01	481.14	0.0	18.97	5.76	909.6
2000	6	5	12	53786.06	13.73	373.57	0.0	18.56	7.52	1012.55
2000	6	6	12	53913.6	5.12	186.16	0.0	15.55	9.44	1053.51
2000	6	7	12	53913.6	0.4	463.23	0.0	14.78	5.57	884.19
2000	6	8	12	53913.6	0.0	565.76	0.0	23.32	6.97	1036.86
2000	6	9	12	53913.6	0.0	508.92	0.0	24.79	12.78	1398.29
2000	6	10	12	53913.6	0.48	384.85	0.0	28.43	15.06	1659.12
2000	6	11	12	53930.16	15.37	380.54	0.0	29.49	16.08	1770.73
2000	6	12	12	54060.42	7.23	346.97	0.0	27.28	16.81	1803.69
2000	6	13	12	54131.66	3.37	259.35	0.0	23.88	16.01	1769.92
2000	6	14	12	54200.85	5.88	320.36	0.0	26.81	17.77	1938.82
2000	6	15	12	54257.28	4.64	354.11	0.0	29.81	18.57	1998.45
2000	6	16	12	54259.2	9.2	334.17	0.0	26.59	17.23	1871.68
2000	6	17	12	54259.2	2.96	336.78	0.0	26.48	17.12	1759.28
2000	6	18	12	54259.2	11.4	364.03	0.0	22.75	12.52	1333.29
2000	6	19	12	54259.2	2.95	440.12	0.0	18.1	7.67	1040.51
2000	6	20	12	54259.2	1.78	414.97	0.0	24.0	9.11	1211.1
2000	6	21	12	54259.2	11.88	399.48	0.0	27.28	12.81	1482.08
2000	6	22	12	54259.2	3.0	463.61	0.0	25.2	15.28	1539.57
2000	6	23	12	54259.2	0.0	532.82	0.0	24.86	11.33	1319.85
2000	6	24	12	54259.2	15.44	396.83	0.0	25.11	11.75	1389.05
2000	6	25	12	54257.28	8.46	396.62	0.0	27.64	13.04	1558.6
2000	6	26	12	54257.28	10.15	295.52	0.0	24.69	16.49	1771.71
2000	6	27	12	54131.66	2.43	420.7	0.0	27.68	16.02	1663.72
2000	6	28	12	54060.42	0.07	424.67	0.0	24.21	10.85	1324.15
2000	6	29	12	53991.73	1.83	366.45	0.0	22.06	11.49	1280.35
2000	6	30	12	53913.6	0.48	505.24	0.0	21.36	9.31	1143.52
2000	7	1	12	53913.6	0.0	537.57	0.0	22.69	9.43	1165.71
2000	7	2	12	53913.6	2.16	414.66	0.0	25.97	10.05	1289.83
2000	7	3	12	53913.6	12.43	390.83	0.0	26.09	12.76	1506.33
2000	7	4	12	53913.6	4.23	242.78	0.0	22.88	16.29	1644.91
2000	7	5	12	53855.25	0.29	532.51	0.0	25.43	11.63	1317.51
2000	7	6	12	53714.82	0.03	473.95	0.0	25.07	9.73	1192.4
2000	7	7	12	53568.0	0.01	528.83	0.0	22.42	9.57	1103.01
2000	7	8	12	53568.0	0.0	548.24	0.0	21.12	7.19	1019.97
2000	7	9	12	53568.0	16.58	398.67	0.0	22.85	9.57	1214.02
2000	7	10	12	53568.0	4.37	451.7	0.0	23.38	13.36	1428.74
2000	7	11	12	53369.21	0.0	507.6	0.0	26.13	13.7	1400.5
2000	7	12	12	53222.4	0.0	553.09	0.0	24.84	9.13	1166.81
2000	7	13	12	53222.4	0.0	541.34	0.0	25.4	10.43	1249.24
2000	7	14	12	53222.4	9.44	401.59	0.0	27.25	11.84	1384.07
2000	7	15	12	53094.86	4.6	370.26	0.0	24.17	12.34	1447.3
2000	7	16	12	52876.8	6.11	281.99	0.0	22.31	14.78	1591.8
2000	7	17	12	52876.8	1.46	381.88	0.0	22.59	14.93	1581.84
2000	7	18	12	52876.8	0.0	470.2	0.0	25.34	14.45	1491.14
2000	7	19	12	52609.33	0.0	444.73	0.0	20.66	11.1	1229.79
2000	7	20	12	52531.2	0.0	505.72	0.0	20.58	8.89	1115.21
2000	7	21	12	52531.2	4.69	390.61	0.0	23.26	9.98	1192.72
2000	7	22	12	52403.66	1.23	493.81	0.0	21.42	10.09	1142.72
2000	7	23	12	52185.6	0.0	525.59	0.0	20.96	8.02	1043.99
2000	7	24	12	52185.6	0.0	538.66	0.0	22.96	8.42	1079.8
2000	7	25	12	52127.25	0.0	535.68	0.0	24.54	9.66	1175.56
2000	7	26	12	51840.0	0.0	528.66	0.0	25.9	11.19	1295.73
2000	7	27	12	51840.0	0.0	517.08	0.0	27.02	12.71	1431.68
2000	7	28	12	51712.46	6.93	381.65	0.0	28.15	13.88	1595.27
2000	7	29	12	51494.4	7.07	357.51	0.0	27.77	15.6	1736.78
2000	7	30	12	51494.4	14.73	330.68	0.0	26.61	16.24	1830.2
2000	7	31	12	51226.93	12.0	307.56	0.0	27.49	18.15	1998.95
2000	8	1	12	51148.8	7.26	333.4	0.0	28.04	18.19	2008.21
2000	8	2	12	51148.8	15.42	317.44	0.0	27.3	17.54	1899.83
2000	8	3	12	50803.2	4.8	347.76	0.0	25.9	14.55	1612.46
2000	8	4	12	50803.2	0.29	467.32	0.0	23.09	12.16	1337.13
2000	8	5	12	50604.42	6.33	396.98	0.0	22.82	8.06	1136.6
2000	8	6	12	50457.6	16.3	394.72	0.0	24.13	8.97	1242.89
2000	8	7	12	50457.6	3.88	383.98	0.0	22.72	14.33	1561.12
2000	8	8	12	50112.0	0.1	370.64	0.0	26.77	14.93	1683.26
2000	8	9	12	50112.0	5.62	360.92	0.0	27.82	14.86	1712.52
2000	8	10	12	49782.95	2.0	358.07	0.0	26.95	15.72	1741.89
2000	8	11	12	49766.4	2.13	325.12	0.0	24.69	14.72	1603.29
2000	8	12	12	49708.05	0.69	382.4	0.0	23.44	11.22	1349.81
2000	8	13	12	49420.8	0.04	463.79	0.0	21.8	11.13	1304.02
2000	8	14	12	49420.8	0.02	459.79	0.0	24.61	11.79	1395.81
2000	8	15	12	49075.2	8.83	354.06	0.0	25.45	13.42	1540.7
2000	8	16	12	49075.2	2.32	472.71	0.0	26.7	14.15	1523.7
2000	8	17	12	48729.6	0.58	353.01	0.0	23.03	10.44	1275.15
2000	8	18	12	48729.6	0.17	347.01	0.0	19.49	10.67	1218.62
2000	8	19	12	48400.56	0.0	485.59	0.0	22.5	10.01	1152.35
2000	8	20	12	48384.0	0.0	515.96	0.0	21.17	6.29	950.75
2000	8	21	12	48185.21	0.0	523.31	0.0	20.04	4.48	877.26
2000	8	22	12	48038.4	2.33	393.1	0.0	23.22	5.76	1004.11
2000	8	23	12	47980.05	6.47	376.81	0.0	25.64	9.43	1265.24
2000	8	24	12	47692.8	1.54	430.96	0.0	24.85	14.21	1458.94
2000	8	25	12	47692.8	0.0	502.18	0.0	25.17	9.16	1201.43
2000	8	26	12	47347.2	0.0	498.51	0.0	25.14	9.58	1210.14
2000	8	27	12	47347.2	0.02	452.42	0.0	25.23	10.73	1322.59
2000	8	28	12	47001.6	0.01	394.41	0.0	23.03	13.79	1499.88
2000	8	29	12	47001.6	0.0	443.73	0.0	26.03	13.96	1564.66
2000	8	30	12	46656.0	0.0	423.97	0.0	26.02	14.96	1632.39
2000	8	31	12	46656.0	0.0	435.86	0.0	26.93	14.79	1652.86
2000	9	1	12	46310.4	0.0	439.03	0.0	28.45	15.67	1778.94
2000	9	2	12	46310.4	5.21	302.46	0.0	29.28	17.98	2013.15
2000	9	3	12	45964.8	1.37	401.51	0.0	29.5	18.31	1988.38
2000	9	4	12	45964.8	0.16	330.15	0.0	27.28	16.1	1647.25
2000	9	5	12	45619.2	0.04	484.87	0.0	20.75	4.85	917.74
2000	9	6	12	45619.2	0.0	489.44	0.0	18.62	2.9	784.16
2000	9	7	12	45273.6	0.0	499.36	0.0	23.48	3.74	867.1
2000	9	8	12	45273.6	0.0	477.87	0.0	24.69	7.47	1098.64
2000	9	9	12	44928.0	0.93	392.84	0.0	26.93	12.27	1443.85
2000	9	10	12	44928.0	7.25	295.81	0.0	26.42	15.06	1683.36
2000	9	11	12	44582.4	8.43	304.06	0.0	28.03	15.65	1788.32
2000	9	12	12	44582.4	7.56	240.6	0.0	25.44	17.12	1769.56
2000	9	13	12	44236.8	2.15	369.46	0.0	24.32	8.28	1192.1
2000	9	14	12	44236.8	4.77	324.98	0.0	21.4	7.96	1091.34
2000	9	15	12	43891.2	22.1	321.93	0.0	21.29	7.86	1069.39
2000	9	16	12	43891.2	5.75	239.72	0.0	17.65	7.27	987.07
2000	9	17	12	43545.6	0.07	405.66	0.0	16.0	4.7	882.88
2000	9	18	12	43545.6	0.0	430.1	0.0	20.64	6.72	999.27
2000	9	19	12	43200.0	0.0	430.68	0.0	23.7	8.81	1158.86
2000	9	20	12	43200.0	13.37	294.54	0.0	23.25	11.07	1306.15
2000	9	21	12	42854.4	3.62	386.02	0.0	24.88	10.57	1246.31
2000	9	22	12	42854.4	4.5	247.98	0.0	20.27	7.06	1029.15
2000	9	23	12	42508.8	9.04	294.86	0.0	18.81	7.01	1056.79
2000	9	24	12	42508.8	2.29	265.05	0.0	19.99	10.83	1176.69
2000	9	25	12	42163.2	0.06	348.58	0.0	15.76	3.7	827.91
2000	9	26	12	42163.2	0.0	333.26	0.0	12.07	3.61	778.32
2000	9	27	12	41817.6	0.55	322.34	0.0	16.82	3.59	801.9
2000	9	28	12	41817.6	0.23	365.14	0.0	18.9	2.78	750.01
2000	9	29	12	41472.0	0.02	415.07	0.0	14.03	-0.86	615.26
2000	9	30	12	41472.0	0.0	427.95	0.0	18.59	0.46	687.18
2000	10	1	12	41126.4	0.0	414.88	0.0	20.68	3.95	854.55
2000	10	2	12	41126.4	0.23	295.71	0.0	21.68	6.69	1011.4
2000	10	3	12	40780.8	12.52	294.31	0.0	22.72	7.31	1048.07
2000	10	4	12	40780.8	9.9	289.3	0.0	20.89	6.01	991.73
2000	10	5	12	40435.2	26.97	249.75	0.0	18.2	7.12	1021.85
2000	10	6	12	40435.2	10.13	83.08	0.0	15.36	8.12	993.96
2000	10	7	12	40089.6	9.1	210.8	0.0	10.18	2.67	746.58
2000	10	8	12	40089.6	5.16	219.23	0.0	7.67	-0.26	614.36
2000	10	9	12	39744.0	4.75	204.81	0.0	6.99	-0.08	606.2
2000	10	10	12	39744.0	1.23	203.41	0.0	7.16	0.03	625.27
2000	10	11	12	39398.4	0.05	347.35	0.0	12.66	1.69	684.92
2000	10	12	12	39398.4	0.0	382.82	0.0	16.31	-0.01	659.76
2000	10	13	12	39052.8	0.0	384.71	0.0	19.08	0.63	706.52
2000	10	14	12	39052.8	0.04	362.85	0.0	21.28	2.8	818.77
2000	10	15	12	38707.2	0.64	273.52	0.0	22.2	4.87	932.31
2000	10	16	12	38707.2	0.82	218.06	0.0	18.23	6.87	1017.36
2000	10	17	12	38419.95	2.12	206.52	0.0	17.97	9.14	1141.78
2000	10	18	12	38361.6	0.51	202.49	0.0	15.81	9.04	1073.97
2000	10	19	12	38214.79	0.0	327.1	0.0	15.1	3.16	803.84
2000	10	20	12	38016.0	0.0	353.38	0.0	17.25	0.84	710.6
2000	10	21	12	37999.44	0.0	351.79	0.0	21.11	1.79	744.02
2000	10	22	12	37670.4	0.0	350.86	0.0	19.82	0.68	694.2
2000	10	23	12	37670.4	1.67	262.15	0.0	17.66	-1.77	619.7
2000	10	24	12	37324.8	1.45	258.02	0.0	19.66	-0.21	725.94
2000	10	25	12	37324.8	0.27	195.88	0.0	17.23	8.81	1067.95
2000	10	26	12	36979.2	0.0	297.49	0.0	21.1	8.26	1127.96
2000	10	27	12	36979.2	1.03	228.25	0.0	22.96	8.19	1117.1
2000	10	28	12	36691.95	0.27	317.7	0.0	21.32	4.65	871.81
2000	10	29	12	36633.6	0.0	309.45	0.0	15.27	-4.76	487.04
2000	10	30	12	36617.05	0.0	309.55	0.0	9.18	-4.63	441.92
2000	10	31	12	36288.0	0.0	318.48	0.0	11.84	-4.16	465.43
2000	11	1	12	36288.0	0.0	310.21	0.0	11.86	-3.43	490.22
2000	11	2	12	35942.4	0.0	318.72	0.0	15.59	-3.49	519.31
2000	11	3	12	35942.4	1.48	233.78	0.0	18.43	-1.48	615.48
2000	11	4	12	35795.58	0.44	219.6	0.0	14.67	2.22	704.55
2000	11	5	12	35596.8	0.01	235.3	0.0	10.02	0.63	621.53
2000	11	6	12	35596.8	0.01	256.38	0.0	8.8	-5.18	450.56
2000	11	7	12	35251.2	0.0	293.83	0.0	11.85	-4.07	510.33
2000	11	8	12	35251.2	0.38	182.89	0.0	14.05	4.0	804.6
2000	11	9	12	35173.07	7.02	174.27	0.0	16.55	5.91	945.1
2000	11	10	12	34905.6	5.17	154.42	0.0	15.62	6.88	968.23
2000	11	11	12	34905.6	0.88	92.67	0.0	12.96	4.13	803.99
2000	11	12	12	34687.54	0.0	113.04	0.0	6.29	2.02	687.13
2000	11	13	12	34560.0	1.06	180.31	0.0	9.79	-0.88	596.49
2000	11	14	12	34560.0	1.49	161.08	0.0	7.82	-1.13	562.27
2000	11	15	12	34272.75	1.73	91.28	0.0	5.49	-2.03	499.4
2000	11	16	12	34214.4	0.43	143.41	0.0	1.09	-4.82	423.79
2000	11	17	12	34214.4	3.42	158.32	0.0	5.19	-3.66	454.82
2000	11	18	12	33996.34	1.11	106.99	0.0	3.25	-3.18	456.29
2000	11	19	12	33868.8	0.45	82.49	0.0	0.32	-4.03	430.02
2000	11	20	12	33868.8	3.72	99.34	0.0	0.66	-4.03	424.24
2000	11	21	12	33790.67	7.86	106.46	0.0	-0.09	-5.07	382.41
2000	11	22	12	33523.2	4.92	171.41	0.0	-2.71	-9.27	277.03
2000	11	23	12	33523.2	0.89	233.27	0.0	-4.9	-14.42	195.64
2000	11	24	12	33523.2	0.02	276.67	0.0	-2.78	-13.06	216.04
2000	11	25	12	33305.14	5.19	222.0	0.0	2.16	-8.78	299.83
2000	11	26	12	33177.6	4.21	219.56	0.0	4.22	-6.91	390.95
2000	11	27	12	33177.6	2.26	124.17	0.0	4.58	0.87	602.44
2000	11	28	12	33177.6	2.62	87.96	0.0	3.65	1.33	631.78
2000	11	29	12	33030.79	7.13	123.71	0.0	3.21	-0.6	568.85
2000	11	30	12	32832.0	3.64	138.03	0.0	3.27	-1.43	525.83
2000	12	1	12	32832.0	0.94	122.56	0.0	1.45	-3.04	447.25
2000	12	2	12	32832.0	0.15	193.09	0.0	-1.46	-8.39	301.02
2000	12	3	12	32832.0	0.01	279.85	0.0	-2.9	-15.32	186.59
2000	12	4	12	32685.18	0.69	228.63	0.0	-0.56	-15.06	184.59
2000	12	5	12	32544.75	2.8	228.68	0.0	1.81	-13.37	214.46
2000	12	6	12	32486.4	2.22	203.33	0.0	-1.72	-10.62	247.0
2000	12	7	12	32486.4	2.5	134.59	0.0	-4.57	-10.42	252.0
2000	12	8	12	32486.4	3.5	141.11	0.0	-4.41	-8.26	282.29
2000	12	9	12	32486.4	0.88	216.29	0.0	-1.38	-11.21	245.27
2000	12	10	12	32486.4	0.04	256.68	0.0	-2.03	-12.45	246.37
2000	12	11	12	32408.27	8.86	184.17	0.0	1.64	-4.88	384.94
2000	12	12	12	32339.58	3.87	221.27	0.0	6.86	-5.68	372.99
2000	12	13	12	32268.34	9.21	220.07	0.0	0.75	-14.53	209.11
2000	12	14	12	32142.72	3.09	229.57	0.0	-0.39	-14.09	222.64
2000	12	15	12	32142.72	0.2	206.19	0.0	0.45	-4.82	380.27
2000	12	16	12	32140.8	9.55	146.96	0.0	0.61	-3.6	454.68
2000	12	17	12	32140.8	4.02	203.76	0.0	8.03	-0.68	523.3
2000	12	18	12	32140.8	2.65	230.17	0.0	4.83	-12.12	272.81
2000	12	19	12	32140.8	0.9	192.91	0.0	0.0	-12.06	220.24
2000	12	20	12	32140.8	0.7	220.33	0.0	-3.19	-12.62	213.13
2000	12	21	12	32140.8	0.33	190.96	0.0	-5.4	-12.3	210.05
2000	12	22	12	32140.8	0.27	225.09	0.0	-3.74	-13.89	186.75
2000	12	23	12	32140.8	0.19	167.37	0.0	-7.39	-16.52	154.25
2000	12	24	12	32140.8	2.32	176.54	0.0	-7.85	-13.67	183.21
2000	12	25	12	32142.72	1.03	191.19	0.0	-6.29	-13.13	196.76
2000	12	26	12	32199.15	0.29	135.71	0.0	-7.93	-12.46	204.46
2000	12	27	12	32268.34	2.37	143.31	0.0	-7.55	-11.37	210.24
2000	12	28	12	32339.58	0.81	233.74	0.0	-6.39	-17.34	148.41
2000	12	29	12	32469.84	0.05	274.59	0.0	-8.14	-17.88	138.74
2000	12	30	12	32486.4	1.03	220.54	0.0	-4.9	-15.08	176.76
2000	12	31	12	32486.4	0.72	152.34	0.0	-6.29	-10.74	231.73
2001	1	1	12	32486.4	0.56	144.65	0.0	-6.34	-10.33	235.66
2001	1	2	12	32486.4	0.29	238.01	0.0	-3.5	-14.83	182.38
2001	1	3	12	32486.4	0.63	223.81	0.0	-5.68	-15.51	174.61
2001	1	4	12	32486.4	1.48	196.67	0.0	-4.54	-11.24	233.59
2001	1	5	12	32613.94	5.87	150.08	0.0	-3.83	-7.73	304.36
2001	1	6	12	32815.44	1.57	167.13	0.0	-1.2	-5.7	356.85
2001	1	7	12	32832.0	0.09	160.38	0.0	-1.66	-5.45	379.18
2001	1	8	12	32832.0	0.56	151.68	0.0	1.06	-2.89	409.44
2001	1	9	12	32832.0	0.4	261.83	0.0	-1.93	-14.64	209.15
2001	1	10	12	32890.35	0.07	270.67	0.0	-5.14	-13.47	204.21
2001	1	11	12	33161.05	0.0	289.71	0.0	1.82	-7.75	285.46
2001	1	12	12	33177.6	0.0	312.47	0.0	1.81	-12.5	229.65
2001	1	13	12	33177.6	0.0	316.74	0.0	3.87	-12.24	232.9
2001	1	14	12	33179.52	0.29	251.12	0.0	4.98	-9.92	283.08
2001	1	15	12	33445.07	1.87	232.52	0.0	3.05	-6.51	369.96
2001	1	16	12	33523.2	1.85	185.14	0.0	4.57	-1.07	508.1
2001	1	17	12	33523.2	1.48	101.5	0.0	2.71	-1.97	484.06
2001	1	18	12	33581.55	0.48	111.65	0.0	-1.09	-3.3	435.43
2001	1	19	12	33868.8	0.06	262.47	0.0	2.69	-4.78	385.23
2001	1	20	12	33868.8	0.0	277.37	0.0	-0.46	-8.33	291.22
2001	1	21	12	33868.8	0.0	290.11	0.0	-4.06	-12.22	221.91
2001	1	22	12	34197.84	0.0	274.42	0.0	-3.75	-10.6	234.65
2001	1	23	12	34214.4	0.01	275.37	0.0	-3.52	-10.73	242.88
2001	1	24	12	34214.4	0.83	272.77	0.0	2.68	-9.69	272.35
2001	1	25	12	34543.44	0.58	237.04	0.0	0.03	-8.75	283.14
2001	1	26	12	34560.0	3.98	176.87	0.0	-2.5	-8.81	281.8
2001	1	27	12	34560.0	2.48	234.22	0.0	-0.39	-7.75	300.93
2001	1	28	12	34905.6	0.42	236.96	0.0	-2.33	-8.84	269.15
2001	1	29	12	34905.6	1.49	253.69	0.0	-4.9	-13.47	202.86
2001	1	30	12	34907.52	6.65	285.39	0.0	1.79	-13.44	253.03
2001	1	31	12	35251.2	2.8	208.53	0.0	5.7	-0.07	527.26
2001	2	1	12	35251.2	0.97	130.23	0.0	4.05	-1.4	509.17
2001	2	2	12	35449.98	2.72	175.01	0.0	0.6	-3.39	421.75
2001	2	3	12	35596.8	0.75	275.52	0.0	-1.52	-10.05	274.73
2001	2	4	12	35596.8	0.02	274.07	0.0	-3.48	-10.12	262.22
2001	2	5	12	35942.4	0.65	265.91	0.0	1.98	-6.07	359.53
2001	2	6	12	35942.4	1.87	186.59	0.0	1.65	-2.66	448.61
2001	2	7	12	36209.87	0.45	198.07	0.0	0.54	-3.16	428.76
2001	2	8	12	36288.0	3.74	236.23	0.0	-0.11	-6.26	371.42
2001	2	9	12	36289.92	4.85	296.4	0.0	8.99	-3.52	441.49
2001	2	10	12	36633.6	1.46	304.83	0.0	14.26	-5.56	396.82
2001	2	11	12	36633.6	0.12	313.74	0.0	8.5	-10.59	254.59
2001	2	12	12	36979.2	0.0	315.88	0.0	-4.91	-11.41	229.95
2001	2	13	12	36979.2	1.09	313.84	0.0	4.91	-9.43	308.93
2001	2	14	12	37246.67	8.77	282.67	0.0	7.29	-1.36	489.15
2001	2	15	12	37324.8	2.29	353.98	0.0	7.85	-2.88	468.6
2001	2	16	12	37383.15	0.63	192.79	0.0	5.22	-3.48	414.78
2001	2	17	12	37670.4	0.68	304.27	0.0	1.21	-8.9	292.64
2001	2	18	12	37670.4	0.14	259.79	0.0	-1.6	-10.92	233.22
2001	2	19	12	38016.0	0.0	327.52	0.0	-4.49	-10.85	241.88
2001	2	20	12	38016.0	0.11	329.45	0.0	5.71	-7.7	312.73
2001	2	21	12	38361.6	0.25	347.46	0.0	8.79	-8.12	296.18
2001	2	22	12	38361.6	0.99	291.66	0.0	2.75	-14.49	186.34
2001	2	23	12	38707.2	0.93	318.43	0.0	-3.88	-13.9	180.24
2001	2	24	12	38707.2	2.22	338.06	0.0	-1.9	-14.45	187.62
2001	2	25	12	39052.8	0.87	344.67	0.0	4.6	-11.29	279.65
2001	2	26	12	39052.8	0.12	386.44	0.0	15.73	-1.89	467.02
2001	2	27	12	39398.4	0.03	254.58	0.0	10.18	-5.66	356.02
2001	2	28	12	39398.4	0.31	286.86	0.0	-0.86	-8.42	285.03
2001	3	1	12	39727.44	0.92	272.28	0.0	-2.91	-9.16	268.23
2001	3	2	12	39744.0	0.25	342.96	0.0	-0.93	-7.65	310.14
2001	3	3	12	40011.47	0.01	284.51	0.0	1.87	-3.12	399.3
2001	3	4	12	40089.6	7.28	301.26	0.0	1.72	-6.06	355.14
2001	3	5	12	40288.38	4.31	249.5	0.0	0.87	-4.68	347.32
2001	3	6	12	40435.2	3.83	353.51	0.0	-2.65	-13.81	219.04
2001	3	7	12	40562.74	0.84	299.77	0.0	-2.49	-7.46	295.09
2001	3	8	12	40780.8	0.75	282.14	0.0	1.04	-5.52	349.4
2001	3	9	12	40908.34	1.7	279.72	0.0	0.89	-5.5	344.67
2001	3	10	12	41126.4	1.27	322.66	0.0	0.39	-7.91	295.96
2001	3	11	12	41184.75	2.8	348.78	0.0	0.99	-8.62	262.12
2001	3	12	12	41472.0	4.16	388.73	0.0	0.38	-14.39	189.42
2001	3	13	12	41473.92	5.23	399.18	0.0	7.55	-13.53	241.29
2001	3	14	12	41817.6	1.33	329.68	0.0	5.93	-1.78	440.28
2001	3	15	12	41819.52	0.05	433.25	0.0	6.1	-2.44	434.43
2001	3	16	12	42163.2	3.53	368.64	0.0	7.56	-3.47	423.34
2001	3	17	12	42165.12	3.29	235.51	0.0	4.89	-2.73	407.08
2001	3	18	12	42508.8	0.62	472.94	0.0	1.17	-8.85	268.99
2001	3	19	12	42508.8	0.0	508.69	0.0	3.39	-9.17	255.34
2001	3	20	12	42854.4	0.03	494.21	0.0	8.33	-7.39	308.78
2001	3	21	12	42854.4	6.32	400.58	0.0	10.63	-4.04	407.2
2001	3	22	12	43200.0	1.66	350.42	0.0	7.74	-0.54	471.9
2001	3	23	12	43543.68	0.41	409.61	0.0	6.8	-4.83	383.32
2001	3	24	12	43545.6	3.14	401.98	0.0	8.72	-4.65	366.47
2001	3	25	12	43889.28	6.6	345.32	0.0	4.6	-7.18	299.2
2001	3	26	12	43891.2	1.76	345.28	0.0	-1.62	-9.52	251.83
2001	3	27	12	44234.88	0.07	387.66	0.0	-2.93	-9.47	250.04
2001	3	28	12	44236.8	0.0	447.57	0.0	0.17	-7.4	299.53
2001	3	29	12	44580.48	4.43	382.77	0.0	6.25	-3.46	410.98
2001	3	30	12	44582.4	1.27	375.09	0.0	7.48	-0.92	486.43
2001	3	31	12	44926.08	0.03	337.37	0.0	5.28	-1.0	479.26
2001	4	1	12	44928.0	0.02	334.19	0.0	3.02	-2.28	445.05
2001	4	2	12	45215.25	0.01	499.91	0.0	8.79	-1.94	434.35
2001	4	3	12	45273.6	2.41	407.56	0.0	7.56	-3.67	400.03
2001	4	4	12	45491.66	0.63	512.32	0.0	5.68	-4.41	368.57
2001	4	5	12	45619.2	2.71	437.1	0.0	12.03	-4.75	388.96
2001	4	6	12	45837.26	2.3	440.39	0.0	16.81	-3.96	488.0
2001	4	7	12	45964.8	1.61	392.34	0.0	16.96	5.79	786.13
2001	4	8	12	46111.62	0.44	442.42	0.0	20.1	7.19	868.58
2001	4	9	12	46310.4	7.22	425.17	0.0	25.19	6.56	853.62
2001	4	10	12	46388.53	1.9	528.13	0.0	21.72	4.08	735.64
2001	4	11	12	46656.0	0.25	405.35	0.0	17.41	4.42	772.92
2001	4	12	12	46672.56	0.07	435.52	0.0	17.01	7.98	887.82
2001	4	13	12	47001.6	0.0	559.32	0.0	27.29	7.43	822.61
2001	4	14	12	47001.6	0.03	488.04	0.0	19.15	-0.64	541.87
2001	4	15	12	47347.2	11.97	437.19	0.0	16.06	-1.07	530.32
2001	4	16	12	47347.2	7.31	393.32	0.0	12.16	0.99	571.5
2001	4	17	12	47692.8	2.56	398.87	0.0	10.07	-1.3	493.98
2001	4	18	12	47692.8	0.39	390.03	0.0	6.35	-2.7	418.3
2001	4	19	12	48038.4	0.03	455.46	0.0	3.86	-5.64	352.89
2001	4	20	12	48038.4	7.54	449.82	0.0	11.98	-5.48	414.91
2001	4	21	12	48384.0	9.51	385.76	0.0	11.95	1.48	671.28
2001	4	22	12	48384.0	5.71	350.9	0.0	17.75	8.47	1008.13
2001	4	23	12	48729.6	1.68	388.09	0.0	24.01	11.02	1175.34
2001	4	24	12	48729.6	0.31	440.6	0.0	27.7	9.71	1018.49
2001	4	25	12	49016.85	0.03	540.1	0.0	21.05	-1.79	526.31
2001	4	26	12	49075.2	0.6	431.23	0.0	15.12	-2.48	498.06
2001	4	27	12	49153.33	0.19	547.46	0.0	17.8	-0.08	551.2
2001	4	28	12	49420.8	0.01	567.74	0.0	18.98	0.15	537.89
2001	4	29	12	49420.8	0.0	558.82	0.0	14.03	-2.97	448.39
2001	4	30	12	49766.4	0.0	576.82	0.0	18.14	-2.18	510.95
2001	5	1	12	49766.4	0.0	571.59	0.0	25.55	3.11	720.31
2001	5	2	12	50110.08	0.0	554.06	0.0	27.94	6.92	916.12
2001	5	3	12	50112.0	0.0	531.54	0.0	27.7	10.34	1079.65
2001	5	4	12	50190.13	0.01	521.84	0.0	28.52	10.81	1108.89
2001	5	5	12	50457.6	0.01	512.41	0.0	26.83	9.99	1030.51
2001	5	6	12	50457.6	0.0	502.32	0.0	22.56	7.29	899.2
2001	5	7	12	50803.2	0.0	515.56	0.0	23.09	8.63	966.86
2001	5	8	12	50803.2	5.66	373.51	0.0	23.09	9.72	1043.43
2001	5	9	12	50950.02	1.49	381.28	0.0	19.71	8.04	931.25
2001	5	10	12	51148.8	0.0	533.13	0.0	22.52	7.22	896.27
2001	5	11	12	51148.8	17.3	406.08	0.0	25.2	8.37	999.99
2001	5	12	12	51492.48	7.08	393.16	0.0	24.13	8.76	960.17
2001	5	13	12	51494.4	1.01	368.02	0.0	18.8	0.76	639.89
2001	5	14	12	51494.4	0.45	397.69	0.0	14.99	1.3	629.5
2001	5	15	12	51840.0	0.09	540.32	0.0	17.17	2.48	648.97
2001	5	16	12	51840.0	0.0	562.81	0.0	20.48	3.18	690.92
2001	5	17	12	51856.56	0.26	444.76	0.0	21.71	4.51	850.6
2001	5	18	12	52185.6	0.89	179.24	0.0	19.35	11.14	1122.95
2001	5	19	12	52185.6	0.22	513.48	0.0	21.32	7.84	912.15
2001	5	20	12	52202.16	0.0	554.43	0.0	23.07	6.37	877.92
2001	5	21	12	52531.2	17.27	379.67	0.0	23.11	9.61	1096.39
2001	5	22	12	52531.2	15.8	166.7	0.0	20.42	11.74	1186.85
2001	5	23	12	52531.2	2.96	510.28	0.0	19.99	7.02	913.49
2001	5	24	12	52818.45	2.64	394.96	0.0	20.1	6.13	897.29
2001	5	25	12	52876.8	6.83	389.82	0.0	20.66	7.01	933.68
2001	5	26	12	52876.8	2.04	400.92	0.0	19.85	6.99	943.92
2001	5	27	12	52954.93	6.06	382.77	0.0	20.81	7.88	981.17
2001	5	28	12	53220.48	5.35	283.29	0.0	16.37	7.33	963.53
2001	5	29	12	53222.4	1.03	263.94	0.0	13.95	8.11	926.44
2001	5	30	12	53222.4	0.01	543.44	0.0	16.71	2.86	674.41
2001	5	31	12	53238.95	0.0	566.95	0.0	14.99	-0.1	593.55
2001	6	1	12	53509.65	18.45	424.43	0.0	18.37	2.52	769.72
2001	6	2	12	53568.0	6.13	323.04	0.0	17.42	8.63	1028.94
2001	6	3	12	53568.0	5.01	280.09	0.0	16.03	8.98	1055.81
2001	6	4	12	53568.0	1.78	202.72	0.0	13.71	8.4	992.06
2001	6	5	12	53584.56	0.19	414.55	0.0	17.71	5.56	876.02
2001	6	6	12	53786.06	0.27	392.73	0.0	18.82	6.71	944.51
2001	6	7	12	53913.6	0.07	485.41	0.0	19.81	9.35	1011.11
2001	6	8	12	53913.6	0.0	564.86	0.0	23.44	7.15	924.13
2001	6	9	12	53913.6	0.73	432.13	0.0	23.72	5.58	906.28
2001	6	10	12	53913.6	12.14	426.69	0.0	23.75	6.62	1008.57
2001	6	11	12	53913.6	3.66	435.1	0.0	24.99	11.35	1235.42
2001	6	12	12	53930.16	0.13	511.5	0.0	24.58	12.31	1273.87
2001	6	13	12	54060.42	0.0	544.83	0.0	28.23	12.5	1322.84
2001	6	14	12	54131.66	0.0	542.48	0.0	29.75	13.53	1466.91
2001	6	15	12	54200.85	0.0	518.09	0.0	32.05	17.18	1768.2
2001	6	16	12	54257.28	6.78	337.17	0.0	29.0	18.67	1797.65
2001	6	17	12	54259.2	1.78	485.22	0.0	23.33	11.67	1239.45
2001	6	18	12	54259.2	0.0	552.02	0.0	25.52	9.93	1141.12
2001	6	19	12	54259.2	0.0	553.5	0.0	28.36	11.49	1308.04
2001	6	20	12	54259.2	0.72	402.02	0.0	31.33	14.85	1595.44
2001	6	21	12	54259.2	35.62	351.37	0.0	27.11	15.96	1659.46
2001	6	22	12	54259.2	11.78	326.68	0.0	24.97	15.42	1594.96
2001	6	23	12	54259.2	3.93	304.5	0.0	21.32	13.02	1362.83
2001	6	24	12	54259.2	0.86	448.23	0.0	19.6	10.35	1149.17
2001	6	25	12	54259.2	0.0	538.71	0.0	23.93	9.85	1133.42
2001	6	26	12	54257.28	0.0	551.31	0.0	26.71	10.6	1218.37
2001	6	27	12	54257.28	0.0	542.92	0.0	28.76	12.47	1391.49
2001	6	28	12	54131.66	0.0	511.49	0.0	29.37	15.55	1590.16
2001	6	29	12	54060.42	0.32	389.58	0.0	29.29	14.76	1651.44
2001	6	30	12	53991.73	2.54	386.73	0.0	29.68	16.83	1783.43
2001	7	1	12	53913.6	5.18	341.29	0.0	26.86	16.37	1579.53
2001	7	2	12	53913.6	1.37	446.99	0.0	23.0	5.75	970.38
2001	7	3	12	53913.6	0.17	419.41	0.0	19.55	6.74	971.23
2001	7	4	12	53913.6	7.21	378.05	0.0	21.03	8.75	1165.19
2001	7	5	12	53913.6	5.75	278.37	0.0	21.51	13.94	1356.96
2001	7	6	12	53855.25	1.02	554.32	0.0	23.23	7.05	999.9
2001	7	7	12	53714.82	0.76	410.44	0.0	22.62	7.4	1064.28
2001	7	8	12	53568.0	0.74	439.37	0.0	25.5	11.06	1262.98
2001	7	9	12	53568.0	0.36	443.1	0.0	26.86	11.68	1343.66
2001	7	10	12	53568.0	4.11	397.56	0.0	28.82	13.02	1445.23
2001	7	11	12	53568.0	1.07	512.76	0.0	27.31	13.39	1358.65
2001	7	12	12	53369.21	0.0	493.76	0.0	21.8	10.01	1122.65
2001	7	13	12	53222.4	0.0	530.34	0.0	21.97	8.3	1034.68
2001	7	14	12	53222.4	0.0	527.27	0.0	22.64	9.03	1072.93
2001	7	15	12	53222.4	0.02	496.3	0.0	23.29	9.59	1149.89
2001	7	16	12	53094.86	0.15	443.13	0.0	27.23	11.69	1338.35
2001	7	17	12	52876.8	0.04	484.1	0.0	26.71	14.57	1519.5
2001	7	18	12	52876.8	0.42	428.05	0.0	28.64	15.74	1677.06
2001	7	19	12	52876.8	11.71	327.84	0.0	27.14	16.92	1733.88
2001	7	20	12	52609.33	3.05	507.58	0.0	28.25	14.57	1519.75
2001	7	21	12	52531.2	0.0	525.2	0.0	29.27	13.89	1477.94
2001	7	22	12	52531.2	0.0	508.06	0.0	29.16	14.96	1589.94
2001	7	23	12	52403.66	0.0	462.12	0.0	29.45	17.7	1822.45
2001	7	24	12	52185.6	0.03	455.04	0.0	31.43	18.75	1950.86
2001	7	25	12	52185.6	12.29	358.68	0.0	31.56	18.16	1904.94
2001	7	26	12	52127.25	3.24	482.36	0.0	29.16	15.19	1496.08
2001	7	27	12	51840.0	0.0	553.97	0.0	24.07	6.24	978.16
2001	7	28	12	51840.0	0.0	545.24	0.0	24.71	8.16	1055.56
2001	7	29	12	51712.46	0.0	520.82	0.0	26.09	11.26	1278.2
2001	7	30	12	51494.4	0.0	291.4	0.0	23.58	14.75	1497.64
2001	7	31	12	51494.4	0.0	470.94	0.0	25.58	13.84	1457.11
2001	8	1	12	51226.93	0.0	518.4	0.0	29.54	13.85	1507.74
2001	8	2	12	51148.8	13.95	383.93	0.0	31.2	14.87	1701.88
2001	8	3	12	51148.8	16.25	329.58	0.0	29.12	17.79	1925.39
2001	8	4	12	50803.2	3.31	311.33	0.0	26.68	18.31	1873.34
2001	8	5	12	50803.2	0.0	500.57	0.0	28.83	14.34	1598.43
2001	8	6	12	50604.42	0.0	505.18	0.0	31.06	15.33	1670.91
2001	8	7	12	50457.6	0.0	495.63	0.0	31.58	16.28	1762.57
2001	8	8	12	50457.6	0.09	460.2	0.0	31.99	16.69	1881.32
2001	8	9	12	50112.0	0.53	372.27	0.0	33.89	19.11	2112.42
2001	8	10	12	50112.0	0.19	447.8	0.0	32.07	18.71	1907.55
2001	8	11	12	49782.95	0.18	421.12	0.0	27.62	12.34	1441.11
2001	8	12	12	49766.4	0.32	396.97	0.0	27.89	12.57	1465.9
2001	8	13	12	49708.05	0.38	329.27	0.0	26.53	15.42	1581.28
2001	8	14	12	49420.8	0.08	506.48	0.0	26.5	11.45	1287.46
2001	8	15	12	49420.8	0.0	515.32	0.0	26.05	10.06	1208.9
2001	8	16	12	49075.2	3.49	387.22	0.0	28.46	11.02	1363.63
2001	8	17	12	49075.2	1.62	379.75	0.0	27.27	14.77	1574.28
2001	8	18	12	48729.6	0.35	340.6	0.0	24.47	14.39	1556.81
2001	8	19	12	48729.6	4.19	297.21	0.0	23.74	14.33	1549.54
2001	8	20	12	48400.56	2.05	301.63	0.0	23.37	13.88	1511.35
2001	8	21	12	48384.0	0.25	358.13	0.0	22.5	14.57	1451.66
2001	8	22	12	48185.21	2.61	374.62	0.0	24.88	9.83	1228.14
2001	8	23	12	48038.4	2.51	367.47	0.0	25.57	10.72	1338.95
2001	8	24	12	47980.05	0.48	210.9	0.0	22.88	16.27	1598.32
2001	8	25	12	47692.8	5.66	389.11	0.0	26.72	11.21	1349.5
2001	8	26	12	47692.8	23.16	366.77	0.0	28.37	12.24	1467.35
2001	8	27	12	47347.2	6.04	354.34	0.0	27.89	16.52	1705.07
2001	8	28	12	47347.2	4.59	328.67	0.0	25.49	13.69	1480.52
2001	8	29	12	47001.6	1.18	476.21	0.0	24.44	10.59	1216.87
2001	8	30	12	47001.6	0.0	490.08	0.0	24.53	8.99	1148.84
2001	8	31	12	46656.0	18.21	363.46	0.0	26.96	10.76	1261.18
2001	9	1	12	46656.0	4.79	412.71	0.0	22.27	10.87	1168.74
2001	9	2	12	46310.4	0.0	474.11	0.0	19.82	6.47	967.52
2001	9	3	12	46310.4	0.95	385.02	0.0	22.97	7.59	1062.92
2001	9	4	12	45964.8	1.38	349.28	0.0	24.36	9.6	1175.16
2001	9	5	12	45964.8	0.3	450.78	0.0	22.56	9.51	1114.47
2001	9	6	12	45619.2	0.0	473.09	0.0	22.22	7.59	1056.85
2001	9	7	12	45619.2	1.83	399.29	0.0	27.86	9.54	1259.26
2001	9	8	12	45273.6	0.48	451.63	0.0	29.31	13.85	1572.5
2001	9	9	12	45273.6	2.49	304.75	0.0	29.54	17.08	1837.75
2001	9	10	12	44928.0	1.33	309.15	0.0	27.92	15.47	1639.12
2001	9	11	12	44928.0	0.18	440.41	0.0	23.07	9.25	1160.57
2001	9	12	12	44582.4	0.0	462.76	0.0	23.4	7.88	1062.33
2001	9	13	12	44582.4	6.03	339.97	0.0	24.77	8.77	1118.23
2001	9	14	12	44236.8	1.59	404.3	0.0	20.45	8.13	1003.95
2001	9	15	12	44236.8	0.0	434.36	0.0	16.45	4.01	806.77
2001	9	16	12	43891.2	0.0	455.57	0.0	18.0	3.5	778.11
2001	9	17	12	43891.2	0.0	461.36	0.0	20.49	3.97	823.46
2001	9	18	12	43545.6	0.0	455.78	0.0	22.66	5.72	964.35
2001	9	19	12	43545.6	7.16	299.71	0.0	23.01	10.58	1245.25
2001	9	20	12	43200.0	2.05	296.45	0.0	22.59	11.97	1303.54
2001	9	21	12	43200.0	7.58	299.4	0.0	21.6	9.23	1160.63
2001	9	22	12	42854.4	1.98	384.42	0.0	21.34	9.91	1121.41
2001	9	23	12	42854.4	0.06	389.48	0.0	21.0	7.12	1004.21
2001	9	24	12	42508.8	10.1	309.54	0.0	21.58	7.42	1021.94
2001	9	25	12	42508.8	4.26	224.37	0.0	17.94	7.54	978.69
2001	9	26	12	42163.2	6.49	200.97	0.0	12.45	4.54	841.56
2001	9	27	12	42163.2	13.21	152.84	0.0	10.02	5.21	854.27
2001	9	28	12	41817.6	3.58	204.93	0.0	12.16	5.44	869.45
2001	9	29	12	41817.6	0.14	331.65	0.0	13.92	5.08	825.33
2001	9	30	12	41472.0	0.0	416.51	0.0	16.51	1.95	719.6
2001	10	1	12	41472.0	0.0	417.89	0.0	17.88	2.04	734.79
2001	10	2	12	41126.4	0.0	412.19	0.0	20.33	4.21	865.18
2001	10	3	12	41126.4	0.0	395.33	0.0	23.5	8.16	1073.38
2001	10	4	12	40780.8	0.21	309.15	0.0	24.22	9.23	1164.7
2001	10	5	12	40780.8	8.84	256.85	0.0	20.29	8.86	1090.96
2001	10	6	12	40435.2	7.75	287.46	0.0	18.68	4.52	857.22
2001	10	7	12	40435.2	5.26	246.32	0.0	14.12	1.12	658.83
2001	10	8	12	40089.6	1.04	290.37	0.0	8.12	-2.04	527.27
2001	10	9	12	40089.6	0.01	390.47	0.0	11.52	-2.98	509.52
2001	10	10	12	39744.0	0.0	404.23	0.0	18.59	-1.46	640.69
2001	10	11	12	39744.0	0.08	310.42	0.0	20.25	6.52	996.76
2001	10	12	12	39398.4	1.69	169.49	0.0	17.86	11.02	1269.06
2001	10	13	12	39398.4	0.44	196.95	0.0	18.05	12.41	1397.15
2001	10	14	12	39052.8	14.02	228.72	0.0	23.86	13.48	1415.76
2001	10	15	12	39052.8	3.69	359.7	0.0	18.8	4.13	896.98
2001	10	16	12	38707.2	16.46	257.08	0.0	15.43	3.26	793.97
2001	10	17	12	38707.2	7.53	221.39	0.0	12.64	3.19	748.77
2001	10	18	12	38419.95	0.84	251.51	0.0	9.33	0.16	631.74
2001	10	19	12	38361.6	0.2	259.35	0.0	13.57	0.64	674.94
2001	10	20	12	38214.79	0.92	280.64	0.0	17.25	2.07	770.16
2001	10	21	12	38016.0	19.53	240.48	0.0	17.58	5.72	936.17
2001	10	22	12	37999.44	6.9	238.69	0.0	19.55	7.01	1026.26
2001	10	23	12	37670.4	6.99	191.19	0.0	17.07	7.36	1064.9
2001	10	24	12	37670.4	6.24	204.47	0.0	19.94	10.53	1226.15
2001	10	25	12	37324.8	1.73	229.32	0.0	19.35	7.46	1046.36
2001	10	26	12	37324.8	12.25	166.93	0.0	15.47	2.61	753.89
2001	10	27	12	36979.2	3.26	123.7	0.0	7.08	-0.1	606.3
2001	10	28	12	36979.2	0.02	148.93	0.0	3.85	-0.29	571.23
2001	10	29	12	36691.95	0.0	259.92	0.0	5.86	-2.48	530.2
2001	10	30	12	36633.6	0.25	230.6	0.0	12.7	-0.21	640.15
2001	10	31	12	36617.05	0.08	233.63	0.0	11.67	3.71	784.51
2001	11	1	12	36288.0	0.0	282.52	0.0	15.03	4.17	856.53
2001	11	2	12	36288.0	4.12	219.61	0.0	19.27	5.92	941.52
2001	11	3	12	35942.4	1.15	265.1	0.0	17.93	3.22	806.84
2001	11	4	12	35942.4	0.06	264.76	0.0	13.88	-0.38	642.52
2001	11	5	12	35795.58	0.01	300.99	0.0	14.17	-0.94	594.17
2001	11	6	12	35596.8	0.0	239.62	0.0	10.39	-2.14	536.84
2001	11	7	12	35596.8	0.0	280.69	0.0	11.09	-0.81	615.08
2001	11	8	12	35251.2	4.61	194.66	0.0	13.99	3.66	780.8
2001	11	9	12	35251.2	1.23	259.68	0.0	15.71	1.74	718.93
2001	11	10	12	35173.07	0.0	244.11	0.0	11.86	-0.93	596.21
2001	11	11	12	34905.6	0.0	269.62	0.0	11.07	-0.77	575.23
2001	11	12	12	34905.6	0.0	218.8	0.0	7.66	-3.64	472.64
2001	11	13	12	34687.54	0.0	276.82	0.0	8.88	-4.19	469.6
2001	11	14	12	34560.0	0.02	252.74	0.0	13.38	-2.63	565.38
2001	11	15	12	34560.0	0.28	207.63	0.0	16.08	2.43	795.03
2001	11	16	12	34272.75	0.07	209.4	0.0	16.62	8.24	1001.35
2001	11	17	12	34214.4	0.0	264.37	0.0	14.46	0.46	699.87
2001	11	18	12	34214.4	0.0	258.58	0.0	11.59	-1.67	581.86
2001	11	19	12	33996.34	11.11	201.91	0.0	15.75	-1.5	602.6
2001	11	20	12	33868.8	3.55	194.84	0.0	15.27	-0.52	612.73
2001	11	21	12	33868.8	0.16	200.99	0.0	10.39	-3.27	495.76
2001	11	22	12	33790.67	0.0	229.02	0.0	7.24	-2.86	500.72
2001	11	23	12	33523.2	0.0	256.02	0.0	11.77	-2.82	533.68
2001	11	24	12	33523.2	12.24	191.76	0.0	15.28	-1.33	631.18
2001	11	25	12	33523.2	4.41	173.07	0.0	16.05	3.78	823.27
2001	11	26	12	33305.14	0.33	174.5	0.0	13.74	5.04	855.29
2001	11	27	12	33177.6	0.84	156.27	0.0	10.94	1.13	725.58
2001	11	28	12	33177.6	9.87	135.37	0.0	12.0	3.99	809.6
2001	11	29	12	33177.6	7.16	109.88	0.0	10.5	4.25	869.26
2001	11	30	12	33030.79	6.26	100.13	0.0	14.52	8.91	1076.77
2001	12	1	12	32832.0	1.33	179.24	0.0	14.79	6.49	965.82
2001	12	2	12	32832.0	0.0	106.84	0.0	11.58	3.67	773.01
2001	12	3	12	32832.0	0.0	225.41	0.0	10.56	-1.52	601.51
2001	12	4	12	32832.0	0.88	175.9	0.0	15.04	-0.29	665.91
2001	12	5	12	32685.18	0.49	167.28	0.0	16.84	3.49	860.09
2001	12	6	12	32544.75	0.36	153.77	0.0	19.87	8.35	1067.86
2001	12	7	12	32486.4	0.08	188.25	0.0	15.24	3.69	805.67
2001	12	8	12	32486.4	0.93	164.0	0.0	8.59	-3.27	526.38
2001	12	9	12	32486.4	0.25	135.35	0.0	5.3	-2.85	469.79
2001	12	10	12	32486.4	0.0	201.45	0.0	4.06	-5.51	409.12
2001	12	11	12	32486.4	0.0	219.41	0.0	6.61	-5.29	418.45
2001	12	12	12	32408.27	2.62	176.59	0.0	9.33	-4.66	460.46
2001	12	13	12	32339.58	1.84	164.13	0.0	9.34	-1.96	578.91
2001	12	14	12	32268.34	9.16	123.02	0.0	11.64	4.28	774.43
2001	12	15	12	32142.72	2.33	208.67	0.0	10.2	-0.83	597.51
2001	12	16	12	32142.72	5.16	149.37	0.0	5.93	-5.14	446.52
2001	12	17	12	32140.8	18.24	128.59	0.0	4.94	-2.5	517.85
2001	12	18	12	32140.8	6.03	90.13	0.0	6.02	1.26	635.28
2001	12	19	12	32140.8	2.75	87.48	0.0	4.6	-0.39	584.56
2001	12	20	12	32140.8	7.5	148.25	0.0	6.59	-2.5	516.3
2001	12	21	12	32140.8	3.23	47.38	0.0	3.97	-2.58	468.49
2001	12	22	12	32140.8	3.33	144.92	0.0	1.54	-5.59	398.67
2001	12	23	12	32140.8	5.83	169.28	0.0	3.42	-5.8	397.69
2001	12	24	12	32140.8	1.57	175.43	0.0	4.25	-4.22	418.4
2001	12	25	12	32140.8	0.07	175.09	0.0	0.82	-7.71	320.23
2001	12	26	12	32142.72	0.3	178.9	0.0	-4.23	-11.16	246.84
2001	12	27	12	32199.15	0.72	159.58	0.0	-5.36	-10.84	243.91
2001	12	28	12	32268.34	1.2	156.55	0.0	-4.38	-9.61	267.06
2001	12	29	12	32339.58	4.11	153.7	0.0	-3.65	-8.67	279.42
2001	12	30	12	32469.84	1.86	163.49	0.0	-5.48	-11.09	241.53
2001	12	31	12	32486.4	0.92	124.97	0.0	-7.0	-10.75	238.6
2002	1	1	12	32486.4	0.91	127.61	0.0	-6.54	-10.03	248.64
2002	1	2	12	32486.4	0.21	207.83	0.0	-4.46	-11.07	244.48
2002	1	3	12	32486.4	0.01	225.79	0.0	-3.26	-9.45	277.59
2002	1	4	12	32486.4	0.0	183.4	0.0	-2.44	-6.69	335.67
2002	1	5	12	32613.94	0.0	215.21	0.0	-0.09	-5.51	380.48
2002	1	6	12	32815.44	5.26	180.68	0.0	2.14	-3.92	430.47
2002	1	7	12	32832.0	1.79	122.27	0.0	0.52	-3.53	421.01
2002	1	8	12	32832.0	0.2	200.1	0.0	-1.7	-7.71	334.78
2002	1	9	12	32832.0	0.04	227.56	0.0	-0.34	-6.25	373.68
2002	1	10	12	32890.35	0.0	240.24	0.0	4.51	-1.73	505.45
2002	1	11	12	33161.05	0.33	201.77	0.0	5.92	-1.29	540.21
2002	1	12	12	33177.6	2.66	143.01	0.0	3.82	-1.8	509.36
2002	1	13	12	33177.6	1.7	192.5	0.0	3.79	-2.85	465.23
2002	1	14	12	33179.52	1.74	208.67	0.0	1.16	-6.55	372.67
2002	1	15	12	33445.07	2.34	229.5	0.0	4.5	-5.22	400.83
2002	1	16	12	33523.2	1.54	169.0	0.0	2.08	-3.95	420.28
2002	1	17	12	33523.2	1.28	176.78	0.0	0.61	-4.5	401.63
2002	1	18	12	33581.55	1.89	206.55	0.0	-0.33	-6.67	337.61
2002	1	19	12	33868.8	2.72	234.98	0.0	-2.01	-10.89	255.08
2002	1	20	12	33868.8	0.87	232.36	0.0	-2.87	-11.09	245.88
2002	1	21	12	33868.8	1.18	236.75	0.0	-0.33	-9.11	297.88
2002	1	22	12	34197.84	0.29	267.1	0.0	2.34	-4.2	406.8
2002	1	23	12	34214.4	0.31	247.18	0.0	7.99	-3.99	480.87
2002	1	24	12	34214.4	2.99	170.15	0.0	6.76	1.98	619.44
2002	1	25	12	34543.44	0.77	311.06	0.0	6.09	-3.88	465.16
2002	1	26	12	34560.0	0.0	301.24	0.0	5.62	-3.58	453.89
2002	1	27	12	34560.0	0.0	312.1	0.0	10.43	-2.37	530.03
2002	1	28	12	34905.6	0.0	293.58	0.0	13.37	2.14	680.17
2002	1	29	12	34905.6	11.74	225.6	0.0	13.1	1.07	688.15
2002	1	30	12	34907.52	10.47	204.65	0.0	12.15	2.85	714.84
2002	1	31	12	35251.2	23.93	163.39	0.0	8.83	-1.08	575.23
2002	2	1	12	35251.2	7.14	224.0	0.0	10.4	-0.99	555.51
2002	2	2	12	35449.98	0.77	255.73	0.0	11.45	-5.85	415.85
2002	2	3	12	35596.8	2.2	227.21	0.0	6.91	-7.7	327.18
2002	2	4	12	35596.8	2.08	245.15	0.0	0.33	-7.96	298.05
2002	2	5	12	35942.4	0.4	335.45	0.0	-2.59	-13.01	223.95
2002	2	6	12	35942.4	0.0	320.98	0.0	-0.81	-9.44	288.05
2002	2	7	12	36209.87	0.0	263.96	0.0	2.4	-3.55	424.17
2002	2	8	12	36288.0	0.0	338.91	0.0	7.79	-3.15	463.46
2002	2	9	12	36289.92	0.0	349.36	0.0	7.87	-4.31	442.4
2002	2	10	12	36633.6	8.84	267.03	0.0	9.43	-4.01	437.54
2002	2	11	12	36633.6	2.72	312.8	0.0	7.1	-8.71	326.04
2002	2	12	12	36979.2	0.88	249.79	0.0	3.2	-9.12	289.26
2002	2	13	12	36979.2	0.21	342.49	0.0	1.12	-8.27	286.61
2002	2	14	12	37246.67	0.0	359.78	0.0	-1.48	-13.06	233.2
2002	2	15	12	37324.8	0.29	297.82	0.0	3.91	-7.03	359.57
2002	2	16	12	37383.15	2.14	229.63	0.0	6.88	-1.01	512.08
2002	2	17	12	37670.4	0.7	251.04	0.0	4.1	-5.2	388.24
2002	2	18	12	37670.4	0.04	358.7	0.0	-0.34	-13.25	229.77
2002	2	19	12	38016.0	0.25	317.9	0.0	4.06	-10.65	283.54
2002	2	20	12	38016.0	2.52	284.65	0.0	9.96	-3.99	483.19
2002	2	21	12	38361.6	2.28	228.55	0.0	11.34	2.63	666.68
2002	2	22	12	38361.6	0.59	211.37	0.0	7.63	-2.98	473.79
2002	2	23	12	38707.2	0.04	216.73	0.0	1.04	-6.46	350.1
2002	2	24	12	38707.2	0.0	360.93	0.0	3.73	-7.54	347.87
2002	2	25	12	39052.8	0.0	382.61	0.0	11.61	-3.86	469.9
2002	2	26	12	39052.8	5.35	286.11	0.0	14.04	-1.0	534.91
2002	2	27	12	39398.4	4.91	327.94	0.0	8.25	-8.38	338.31
2002	2	28	12	39398.4	0.95	173.75	0.0	3.09	-8.1	295.74
2002	3	1	12	39727.44	0.01	273.16	0.0	-2.62	-8.01	302.93
2002	3	2	12	39744.0	5.35	321.93	0.0	4.92	-6.84	362.76
2002	3	3	12	40011.47	3.7	322.45	0.0	8.92	-3.06	428.5
2002	3	4	12	40089.6	1.07	381.15	0.0	5.0	-11.02	259.63
2002	3	5	12	40288.38	0.39	263.13	0.0	-0.25	-13.81	198.9
2002	3	6	12	40435.2	0.07	446.14	0.0	2.25	-10.82	273.74
2002	3	7	12	40562.74	0.0	440.13	0.0	10.31	-3.21	445.73
2002	3	8	12	40780.8	0.0	445.29	0.0	11.27	-2.39	553.12
2002	3	9	12	40908.34	3.47	335.56	0.0	19.71	5.27	774.72
2002	3	10	12	41126.4	2.27	364.71	0.0	16.57	-6.8	410.49
2002	3	11	12	41184.75	0.68	255.93	0.0	9.31	-9.42	284.24
2002	3	12	12	41472.0	0.12	377.78	0.0	2.45	-8.04	339.3
2002	3	13	12	41473.92	0.01	392.93	0.0	8.17	-0.89	523.01
2002	3	14	12	41817.6	0.0	448.04	0.0	13.95	-0.12	597.07
2002	3	15	12	41819.52	7.86	335.39	0.0	17.28	0.94	643.07
2002	3	16	12	42163.2	2.23	425.73	0.0	17.05	-1.7	536.05
2002	3	17	12	42165.12	0.51	276.71	0.0	11.32	-4.92	423.49
2002	3	18	12	42508.8	0.22	245.2	0.0	3.94	-2.37	478.4
2002	3	19	12	42508.8	2.09	235.52	0.0	5.96	-0.89	535.87
2002	3	20	12	42854.4	6.5	250.85	0.0	6.8	-0.64	539.7
2002	3	21	12	42854.4	4.87	256.0	0.0	5.24	-2.29	452.33
2002	3	22	12	43200.0	2.58	383.23	0.0	4.08	-11.21	260.52
2002	3	23	12	43543.68	0.45	348.26	0.0	0.39	-10.57	252.24
2002	3	24	12	43545.6	3.61	356.01	0.0	4.36	-6.44	333.47
2002	3	25	12	43889.28	5.69	334.08	0.0	3.29	-6.11	351.48
2002	3	26	12	43891.2	9.5	233.4	0.0	1.26	-5.27	378.7
2002	3	27	12	44234.88	2.23	318.64	0.0	2.94	-2.87	415.78
2002	3	28	12	44236.8	0.04	439.9	0.0	2.17	-7.19	335.86
2002	3	29	12	44580.48	10.52	402.03	0.0	9.86	-5.53	422.74
2002	3	30	12	44582.4	2.77	512.36	0.0	16.51	1.82	606.03
2002	3	31	12	44926.08	2.94	396.56	0.0	12.86	-1.98	531.46
2002	4	1	12	44928.0	1.0	379.89	0.0	11.28	-0.86	538.43
2002	4	2	12	45215.25	17.83	296.43	0.0	7.98	-1.52	521.35
2002	4	3	12	45273.6	5.14	357.74	0.0	10.8	-0.51	537.43
2002	4	4	12	45491.66	0.24	264.67	0.0	6.5	-4.1	415.21
2002	4	5	12	45619.2	4.04	279.24	0.0	1.28	-5.46	370.17
2002	4	6	12	45837.26	1.06	372.33	0.0	1.39	-5.62	355.0
2002	4	7	12	45964.8	0.1	340.75	0.0	1.86	-6.54	352.16
2002	4	8	12	46111.62	4.35	405.49	0.0	10.67	-5.31	481.08
2002	4	9	12	46310.4	13.22	365.42	0.0	16.64	5.42	771.63
2002	4	10	12	46388.53	3.18	534.92	0.0	15.72	-0.47	594.58
2002	4	11	12	46656.0	0.0	531.75	0.0	14.84	-0.46	622.74
2002	4	12	12	46672.56	4.58	395.42	0.0	22.19	4.56	860.5
2002	4	13	12	47001.6	10.48	383.59	0.0	21.56	6.76	959.23
2002	4	14	12	47001.6	14.33	317.0	0.0	17.22	6.7	965.3
2002	4	15	12	47347.2	8.13	317.87	0.0	17.59	8.85	1105.01
2002	4	16	12	47347.2	1.32	475.88	0.0	22.97	11.36	1278.69
2002	4	17	12	47692.8	0.01	458.01	0.0	28.87	12.95	1415.18
2002	4	18	12	47692.8	0.0	508.51	0.0	28.25	11.9	1371.62
2002	4	19	12	48038.4	3.67	376.57	0.0	29.04	12.67	1390.59
2002	4	20	12	48038.4	4.0	395.17	0.0	26.52	8.03	1058.82
2002	4	21	12	48384.0	2.54	360.58	0.0	19.49	2.39	725.73
2002	4	22	12	48384.0	1.05	194.42	0.0	10.04	1.08	602.68
2002	4	23	12	48729.6	0.15	413.42	0.0	4.54	-3.27	455.48
2002	4	24	12	48729.6	2.02	399.12	0.0	9.34	-3.86	484.79
2002	4	25	12	49016.85	2.55	405.94	0.0	16.73	0.9	620.4
2002	4	26	12	49075.2	0.53	471.43	0.0	12.71	-1.06	523.03
2002	4	27	12	49153.33	8.51	406.25	0.0	9.99	-4.08	501.39
2002	4	28	12	49420.8	12.86	369.33	0.0	14.18	2.91	690.85
2002	4	29	12	49420.8	3.45	426.65	0.0	21.12	-1.24	612.06
2002	4	30	12	49766.4	0.76	178.33	0.0	16.47	0.54	595.5
2002	5	1	12	49766.4	5.47	412.95	0.0	13.24	-1.58	593.52
2002	5	2	12	50110.08	1.67	392.37	0.0	14.96	4.45	750.24
2002	5	3	12	50112.0	0.19	443.91	0.0	15.83	1.06	622.61
2002	5	4	12	50190.13	0.03	532.59	0.0	11.87	-3.03	477.81
2002	5	5	12	50457.6	0.0	575.59	0.0	18.38	-1.92	572.36
2002	5	6	12	50457.6	0.61	416.11	0.0	21.97	4.28	853.08
2002	5	7	12	50803.2	1.67	418.65	0.0	22.32	8.7	1013.51
2002	5	8	12	50803.2	4.75	401.76	0.0	20.0	4.94	891.06
2002	5	9	12	50950.02	7.97	386.16	0.0	20.33	6.97	946.65
2002	5	10	12	51148.8	1.8	491.75	0.0	21.43	5.92	843.1
2002	5	11	12	51148.8	6.36	421.56	0.0	16.46	-0.62	643.5
2002	5	12	12	51492.48	32.45	389.34	0.0	16.46	3.57	808.31
2002	5	13	12	51494.4	28.51	250.72	0.0	15.42	8.57	992.05
2002	5	14	12	51494.4	16.48	366.41	0.0	14.94	3.81	791.96
2002	5	15	12	51840.0	2.94	390.8	0.0	12.43	2.1	713.25
2002	5	16	12	51840.0	11.93	408.79	0.0	18.35	3.62	803.61
2002	5	17	12	51856.56	10.3	418.32	0.0	20.61	4.14	808.11
2002	5	18	12	52185.6	2.22	344.72	0.0	16.22	1.13	646.93
2002	5	19	12	52185.6	0.09	451.17	0.0	8.25	-1.34	530.44
2002	5	20	12	52202.16	0.0	525.29	0.0	9.41	-2.24	500.26
2002	5	21	12	52531.2	0.0	503.25	0.0	8.87	-1.84	513.96
2002	5	22	12	52531.2	0.0	543.72	0.0	11.85	-1.23	566.79
2002	5	23	12	52531.2	0.14	460.8	0.0	19.31	0.69	760.87
2002	5	24	12	52818.45	0.28	390.28	0.0	22.44	9.01	1029.55
2002	5	25	12	52876.8	12.09	432.46	0.0	20.51	1.77	766.61
2002	5	26	12	52876.8	3.16	530.68	0.0	17.04	3.93	786.21
2002	5	27	12	52954.93	0.0	560.02	0.0	19.48	3.69	827.88
2002	5	28	12	53220.48	0.0	568.59	0.0	26.02	6.18	1006.17
2002	5	29	12	53222.4	6.8	402.75	0.0	24.91	9.68	1263.18
2002	5	30	12	53222.4	2.18	396.92	0.0	26.74	13.47	1541.4
2002	5	31	12	53238.95	0.71	313.16	0.0	24.78	15.46	1590.6
2002	6	1	12	53509.65	0.16	543.2	0.0	26.88	10.28	1257.78
2002	6	2	12	53568.0	0.0	536.41	0.0	25.78	10.28	1138.88
2002	6	3	12	53568.0	0.26	474.1	0.0	19.67	4.24	885.46
2002	6	4	12	53568.0	18.47	371.83	0.0	18.45	6.94	1060.39
2002	6	5	12	53584.56	22.39	398.87	0.0	27.11	11.74	1383.69
2002	6	6	12	53786.06	5.91	382.39	0.0	26.21	12.5	1334.99
2002	6	7	12	53913.6	0.34	470.78	0.0	19.73	5.7	949.04
2002	6	8	12	53913.6	0.0	555.99	0.0	23.76	7.26	1062.97
2002	6	9	12	53913.6	0.0	544.59	0.0	26.82	10.5	1270.92
2002	6	10	12	53913.6	0.0	533.76	0.0	27.31	11.94	1423.8
2002	6	11	12	53913.6	1.39	385.04	0.0	28.66	14.31	1657.25
2002	6	12	12	53930.16	1.04	356.44	0.0	28.11	15.9	1760.55
2002	6	13	12	54060.42	2.52	300.99	0.0	24.66	15.33	1703.04
2002	6	14	12	54131.66	11.93	275.17	0.0	23.21	15.5	1642.1
2002	6	15	12	54200.85	12.99	302.69	0.0	21.14	12.64	1389.0
2002	6	16	12	54257.28	8.98	251.9	0.0	17.43	9.89	1173.83
2002	6	17	12	54259.2	2.59	326.51	0.0	16.95	8.48	1084.77
2002	6	18	12	54259.2	0.24	513.21	0.0	20.7	8.27	1066.11
2002	6	19	12	54259.2	0.0	554.45	0.0	24.14	7.8	1094.11
2002	6	20	12	54259.2	0.0	554.13	0.0	27.24	9.69	1253.92
2002	6	21	12	54259.2	0.08	502.62	0.0	29.11	12.33	1462.39
2002	6	22	12	54259.2	0.02	523.1	0.0	29.46	14.08	1637.3
2002	6	23	12	54259.2	0.0	477.51	0.0	29.61	17.08	1885.49
2002	6	24	12	54259.2	0.1	416.7	0.0	29.54	18.06	1973.95
2002	6	25	12	54259.2	0.03	484.8	0.0	30.42	17.44	1934.6
2002	6	26	12	54257.28	9.28	366.5	0.0	30.91	17.49	1981.76
2002	6	27	12	54257.28	10.83	349.16	0.0	29.23	17.54	1941.63
2002	6	28	12	54131.66	2.22	421.75	0.0	27.47	16.58	1732.45
2002	6	29	12	54060.42	0.0	513.9	0.0	25.46	12.33	1436.75
2002	6	30	12	53991.73	0.0	523.94	0.0	27.99	13.43	1554.53
2002	7	1	12	53913.6	0.0	501.31	0.0	29.73	16.23	1818.72
2002	7	2	12	53913.6	0.0	473.87	0.0	30.75	18.55	2005.99
2002	7	3	12	53913.6	0.0	494.37	0.0	31.75	18.08	1998.83
2002	7	4	12	53913.6	0.0	480.23	0.0	31.2	18.5	1906.32
2002	7	5	12	53913.6	0.0	540.95	0.0	29.96	12.75	1444.16
2002	7	6	12	53855.25	0.0	525.93	0.0	24.44	10.65	1241.12
2002	7	7	12	53714.82	0.0	542.38	0.0	25.33	10.01	1222.77
2002	7	8	12	53568.0	0.04	437.5	0.0	27.88	10.55	1409.49
2002	7	9	12	53568.0	13.03	351.77	0.0	28.52	16.79	1773.12
2002	7	10	12	53568.0	3.43	384.45	0.0	24.12	15.13	1501.43
2002	7	11	12	53568.0	0.0	554.89	0.0	23.72	7.51	1051.62
2002	7	12	12	53369.21	0.0	558.06	0.0	23.21	6.97	1006.41
2002	7	13	12	53222.4	0.0	562.39	0.0	26.35	8.11	1115.1
2002	7	14	12	53222.4	0.0	535.89	0.0	26.83	11.26	1299.64
2002	7	15	12	53222.4	0.0	534.48	0.0	28.97	12.53	1407.95
2002	7	16	12	53094.86	0.0	527.31	0.0	29.18	13.2	1484.3
2002	7	17	12	52876.8	0.0	511.77	0.0	29.5	14.61	1609.15
2002	7	18	12	52876.8	0.01	471.82	0.0	31.54	15.51	1741.23
2002	7	19	12	52876.8	0.0	468.89	0.0	29.97	17.39	1844.7
2002	7	20	12	52609.33	0.2	372.48	0.0	27.73	16.69	1764.06
2002	7	21	12	52531.2	7.52	387.63	0.0	29.14	13.72	1667.44
2002	7	22	12	52531.2	9.32	359.89	0.0	31.67	17.87	2011.76
2002	7	23	12	52403.66	10.92	329.33	0.0	30.81	19.29	2014.85
2002	7	24	12	52185.6	2.37	476.99	0.0	26.62	12.37	1413.07
2002	7	25	12	52185.6	1.12	371.97	0.0	23.67	10.96	1354.75
2002	7	26	12	52127.25	3.73	323.6	0.0	24.62	14.5	1632.34
2002	7	27	12	51840.0	10.77	293.64	0.0	26.13	17.24	1884.31
2002	7	28	12	51840.0	48.67	309.46	0.0	27.75	17.9	2022.13
2002	7	29	12	51712.46	23.59	286.84	0.0	28.87	19.84	2238.45
2002	7	30	12	51494.4	3.05	337.66	0.0	30.83	19.94	2195.69
2002	7	31	12	51494.4	0.01	466.13	0.0	28.54	16.35	1847.95
2002	8	1	12	51226.93	0.0	482.56	0.0	30.32	16.74	1881.57
2002	8	2	12	51148.8	0.0	478.46	0.0	31.79	17.79	1958.91
2002	8	3	12	51148.8	0.0	482.63	0.0	30.4	16.53	1817.2
2002	8	4	12	50803.2	1.64	384.44	0.0	30.09	13.89	1718.1
2002	8	5	12	50803.2	0.45	421.24	0.0	30.1	17.96	1873.01
2002	8	6	12	50604.42	0.01	506.96	0.0	26.78	12.24	1404.64
2002	8	7	12	50457.6	0.0	480.14	0.0	22.79	9.14	1133.54
2002	8	8	12	50457.6	0.0	519.0	0.0	22.16	7.72	1050.7
2002	8	9	12	50112.0	0.0	534.04	0.0	23.96	7.47	1066.82
2002	8	10	12	50112.0	0.0	531.49	0.0	26.47	8.96	1201.09
2002	8	11	12	49782.95	0.0	518.0	0.0	29.36	12.34	1444.13
2002	8	12	12	49766.4	3.7	369.91	0.0	29.64	14.48	1657.33
2002	8	13	12	49708.05	2.01	381.98	0.0	30.36	15.89	1789.57
2002	8	14	12	49420.8	5.4	358.48	0.0	31.27	16.66	1902.04
2002	8	15	12	49420.8	3.63	341.96	0.0	31.25	17.93	2026.44
2002	8	16	12	49075.2	8.71	288.05	0.0	28.78	19.19	2103.13
2002	8	17	12	49075.2	2.68	326.0	0.0	28.94	18.5	2065.46
2002	8	18	12	48729.6	0.47	322.52	0.0	28.65	19.24	1984.44
2002	8	19	12	48729.6	1.81	373.82	0.0	27.2	11.88	1457.77
2002	8	20	12	48400.56	0.46	421.12	0.0	24.08	13.08	1397.61
2002	8	21	12	48384.0	0.0	487.68	0.0	25.24	11.41	1330.06
2002	8	22	12	48185.21	6.26	370.73	0.0	27.84	12.11	1466.48
2002	8	23	12	48038.4	7.29	331.48	0.0	27.21	15.05	1682.11
2002	8	24	12	47980.05	3.09	177.18	0.0	24.03	16.32	1703.27
2002	8	25	12	47692.8	0.42	421.6	0.0	23.36	13.16	1438.92
2002	8	26	12	47692.8	0.0	468.81	0.0	25.12	11.95	1351.18
2002	8	27	12	47347.2	0.0	473.89	0.0	25.8	11.99	1347.07
2002	8	28	12	47347.2	0.01	443.44	0.0	24.43	11.73	1341.95
2002	8	29	12	47001.6	0.0	441.28	0.0	24.68	12.87	1349.67
2002	8	30	12	47001.6	0.0	482.74	0.0	23.4	8.83	1146.33
2002	8	31	12	46656.0	0.0	489.2	0.0	25.87	9.8	1202.6
2002	9	1	12	46656.0	0.0	481.42	0.0	26.8	10.74	1315.99
2002	9	2	12	46310.4	1.84	297.16	0.0	24.14	13.85	1563.09
2002	9	3	12	46310.4	3.75	311.2	0.0	27.51	15.87	1698.6
2002	9	4	12	45964.8	0.86	463.82	0.0	29.17	13.71	1502.95
2002	9	5	12	45964.8	0.0	431.08	0.0	24.75	12.65	1347.03
2002	9	6	12	45619.2	0.0	467.62	0.0	24.34	9.67	1183.12
2002	9	7	12	45619.2	0.0	476.26	0.0	27.33	10.08	1226.93
2002	9	8	12	45273.6	0.0	476.61	0.0	29.83	11.02	1316.23
2002	9	9	12	45273.6	0.0	469.39	0.0	31.05	11.92	1402.08
2002	9	10	12	44928.0	0.27	389.62	0.0	32.31	12.44	1475.92
2002	9	11	12	44928.0	0.08	438.13	0.0	29.93	12.91	1381.72
2002	9	12	12	44582.4	0.0	457.14	0.0	23.72	6.0	969.75
2002	9	13	12	44582.4	0.0	467.3	0.0	23.39	6.59	980.13
2002	9	14	12	44236.8	24.26	346.64	0.0	26.08	8.45	1149.63
2002	9	15	12	44236.8	27.99	284.38	0.0	22.85	12.02	1391.89
2002	9	16	12	43891.2	6.14	197.18	0.0	21.58	15.07	1575.36
2002	9	17	12	43891.2	0.12	375.15	0.0	22.6	11.98	1359.35
2002	9	18	12	43545.6	0.0	417.46	0.0	24.21	10.81	1336.69
2002	9	19	12	43545.6	1.95	269.63	0.0	25.49	14.9	1647.94
2002	9	20	12	43200.0	0.81	268.13	0.0	26.31	15.88	1787.35
2002	9	21	12	43200.0	0.22	305.99	0.0	28.85	17.06	1829.08
2002	9	22	12	42854.4	1.17	273.12	0.0	24.67	12.71	1428.87
2002	9	23	12	42854.4	0.3	421.94	0.0	22.0	7.22	1034.27
2002	9	24	12	42508.8	0.0	423.85	0.0	19.37	4.85	882.23
2002	9	25	12	42508.8	0.0	431.6	0.0	21.46	4.83	907.94
2002	9	26	12	42163.2	6.45	290.48	0.0	20.59	8.06	1067.77
2002	9	27	12	42163.2	31.34	238.67	0.0	17.89	8.67	1138.2
2002	9	28	12	41817.6	7.8	207.9	0.0	16.96	11.66	1242.18
2002	9	29	12	41817.6	0.0	395.28	0.0	20.01	6.49	1024.47
2002	9	30	12	41472.0	0.0	400.42	0.0	22.82	7.99	1131.98
2002	10	1	12	41472.0	0.0	365.29	0.0	24.96	12.21	1415.13
2002	10	2	12	41126.4	7.04	257.47	0.0	25.12	13.56	1559.89
2002	10	3	12	41126.4	2.9	246.47	0.0	24.48	13.73	1577.17
2002	10	4	12	40780.8	3.5	173.57	0.0	22.14	13.96	1561.92
2002	10	5	12	40780.8	1.05	247.82	0.0	24.3	13.32	1438.96
2002	10	6	12	40435.2	0.05	365.65	0.0	19.21	4.65	949.34
2002	10	7	12	40435.2	0.0	348.52	0.0	18.66	7.19	944.57
2002	10	8	12	40089.6	0.0	383.88	0.0	14.18	0.45	687.46
2002	10	9	12	40089.6	0.0	379.41	0.0	14.83	1.15	698.24
2002	10	10	12	39744.0	0.0	383.09	0.0	18.4	3.31	812.11
2002	10	11	12	39744.0	0.0	348.95	0.0	17.85	5.91	970.29
2002	10	12	12	39398.4	1.12	154.74	0.0	16.1	10.38	1207.01
2002	10	13	12	39398.4	3.02	156.81	0.0	16.23	10.68	1152.85
2002	10	14	12	39052.8	0.72	372.3	0.0	13.47	-0.51	665.92
2002	10	15	12	39052.8	3.48	272.44	0.0	12.4	-0.83	640.17
2002	10	16	12	38707.2	19.96	220.42	0.0	13.3	4.55	806.37
2002	10	17	12	38707.2	6.81	200.88	0.0	10.49	2.28	719.94
2002	10	18	12	38419.95	7.69	215.09	0.0	8.63	0.33	654.74
2002	10	19	12	38361.6	11.7	219.81	0.0	10.99	2.02	716.14
2002	10	20	12	38214.79	2.58	278.8	0.0	11.5	2.76	733.97
2002	10	21	12	38016.0	0.0	302.34	0.0	10.72	1.16	675.29
2002	10	22	12	37999.44	0.0	301.69	0.0	10.76	0.37	645.67
2002	10	23	12	37670.4	0.17	274.92	0.0	11.71	0.72	636.74
2002	10	24	12	37670.4	0.08	283.77	0.0	8.33	-2.78	517.52
2002	10	25	12	37324.8	14.14	204.0	0.0	5.9	-2.52	529.03
2002	10	26	12	37324.8	5.29	158.79	0.0	7.85	2.02	693.98
2002	10	27	12	36979.2	0.49	143.02	0.0	9.06	4.34	784.42
2002	10	28	12	36979.2	0.02	207.36	0.0	7.95	2.22	683.2
2002	10	29	12	36691.95	2.98	227.55	0.0	7.04	-2.88	512.08
2002	10	30	12	36633.6	0.83	238.37	0.0	5.01	-3.12	467.88
2002	10	31	12	36617.05	4.01	198.63	0.0	4.12	-4.24	444.04
2002	11	1	12	36288.0	7.13	219.55	0.0	6.8	-3.32	477.85
2002	11	2	12	36288.0	2.56	132.89	0.0	4.82	-1.74	512.87
2002	11	3	12	35942.4	0.88	111.22	0.0	2.05	-1.87	508.51
2002	11	4	12	35942.4	0.54	186.9	0.0	4.87	-2.69	506.86
2002	11	5	12	35795.58	4.56	130.29	0.0	4.42	-0.26	578.96
2002	11	6	12	35596.8	2.31	121.19	0.0	4.65	0.35	598.86
2002	11	7	12	35596.8	0.3	201.12	0.0	4.04	-1.51	541.14
2002	11	8	12	35251.2	0.43	225.04	0.0	8.01	-1.66	588.71
2002	11	9	12	35251.2	0.99	232.07	0.0	16.21	4.49	870.9
2002	11	10	12	35173.07	18.72	160.05	0.0	15.59	8.95	1106.52
2002	11	11	12	34905.6	5.0	173.77	0.0	16.56	8.86	1087.64
2002	11	12	12	34905.6	1.03	194.87	0.0	13.33	2.44	787.82
2002	11	13	12	34687.54	0.26	141.93	0.0	9.99	2.9	717.46
2002	11	14	12	34560.0	0.0	252.12	0.0	8.77	0.07	634.7
2002	11	15	12	34560.0	5.55	202.34	0.0	11.56	0.07	627.73
2002	11	16	12	34272.75	9.07	178.39	0.0	8.64	-1.08	575.85
2002	11	17	12	34214.4	6.3	70.43	0.0	5.27	-0.58	556.38
2002	11	18	12	34214.4	1.24	138.93	0.0	2.41	-1.74	515.56
2002	11	19	12	33996.34	1.63	141.71	0.0	2.44	-3.02	491.03
2002	11	20	12	33868.8	0.42	216.73	0.0	6.16	-0.74	569.53
2002	11	21	12	33868.8	3.96	194.91	0.0	11.81	-0.49	616.7
2002	11	22	12	33790.67	7.75	165.95	0.0	8.61	0.36	612.69
2002	11	23	12	33523.2	1.92	168.15	0.0	4.91	-2.86	510.63
2002	11	24	12	33523.2	0.41	101.9	0.0	3.05	-1.38	534.91
2002	11	25	12	33523.2	0.44	131.4	0.0	4.94	-0.39	567.79
2002	11	26	12	33305.14	2.84	101.19	0.0	2.88	-2.26	494.68
2002	11	27	12	33177.6	2.66	132.92	0.0	0.78	-4.49	410.54
2002	11	28	12	33177.6	1.9	197.42	0.0	-1.3	-8.22	322.72
2002	11	29	12	33177.6	1.4	205.57	0.0	-0.9	-7.23	353.85
2002	11	30	12	33030.79	8.01	189.61	0.0	5.27	-2.41	465.49
2002	12	1	12	32832.0	3.64	213.84	0.0	1.89	-7.44	348.76
2002	12	2	12	32832.0	3.97	178.0	0.0	-1.38	-8.42	280.86
2002	12	3	12	32832.0	1.73	232.45	0.0	-3.42	-17.67	160.91
2002	12	4	12	32832.0	0.34	214.25	0.0	-6.48	-15.67	168.97
2002	12	5	12	32685.18	1.98	208.82	0.0	-3.95	-12.22	226.1
2002	12	6	12	32544.75	0.72	160.92	0.0	-3.1	-7.83	292.98
2002	12	7	12	32486.4	0.06	249.8	0.0	-2.84	-10.24	273.67
2002	12	8	12	32486.4	1.23	209.11	0.0	1.06	-7.73	296.42
2002	12	9	12	32486.4	0.32	292.13	0.0	-0.61	-17.09	172.71
2002	12	10	12	32486.4	0.0	287.76	0.0	-2.34	-16.11	180.4
2002	12	11	12	32486.4	10.57	223.46	0.0	2.24	-9.56	281.68
2002	12	12	12	32408.27	2.83	218.98	0.0	0.76	-7.2	354.72
2002	12	13	12	32339.58	15.21	129.52	0.0	1.12	-2.36	475.56
2002	12	14	12	32268.34	8.38	119.17	0.0	1.31	-1.68	517.53
2002	12	15	12	32142.72	5.78	88.87	0.0	1.03	-0.52	532.35
2002	12	16	12	32142.72	1.48	183.51	0.0	1.6	-4.72	402.16
2002	12	17	12	32140.8	0.07	259.8	0.0	-2.37	-12.29	243.8
2002	12	18	12	32140.8	0.0	275.35	0.0	-0.22	-10.97	270.96
2002	12	19	12	32140.8	10.83	188.89	0.0	3.13	-4.42	440.23
2002	12	20	12	32140.8	4.13	207.75	0.0	10.75	0.52	607.05
2002	12	21	12	32140.8	1.56	173.65	0.0	6.86	-2.87	494.9
2002	12	22	12	32140.8	1.58	161.73	0.0	1.55	-3.94	443.41
2002	12	23	12	32140.8	0.55	171.1	0.0	1.66	-3.39	446.13
2002	12	24	12	32140.8	5.94	119.87	0.0	-0.07	-4.36	414.59
2002	12	25	12	32140.8	6.78	106.51	0.0	-2.06	-4.51	402.95
2002	12	26	12	32142.72	1.38	134.68	0.0	-2.0	-4.69	387.27
2002	12	27	12	32199.15	0.0	203.69	0.0	-2.25	-7.39	322.93
2002	12	28	12	32268.34	0.75	185.8	0.0	-3.17	-9.74	280.49
2002	12	29	12	32339.58	0.2	248.91	0.0	-0.37	-8.12	310.97
2002	12	30	12	32469.84	3.52	210.0	0.0	1.85	-7.34	350.34
2002	12	31	12	32486.4	7.92	213.4	0.0	5.35	-4.52	435.16
